File: data/Jesus_data/CO_Removal.DTA
EXPLAIN
TAG	CV
TITLE	LABEL	Cyclic Voltammetry	Test Identifier
DATE	LABEL	7/17/2023	Date
TIME	LABEL	20:51:04	Time
NOTES	NOTES	1	Notes...

PSTAT	PSTAT	IFC1010-20234	Potentiostat
VINIT	POTEN	-1.27000E-001	F	Initial E (V)
VLIMIT1	POTEN	7.74000E-001	F	Scan Limit 1 (V)
VLIMIT2	POTEN	-2.27000E-001	F	Scan Limit 2 (V)
VFINAL	POTEN	-1.27000E-001	F	Final E (V)
SCANRATE	QUANT	4.99999E+001	Scan Rate (mV/s)
STEPSIZE	QUANT	2.00000E+000	Step Size (mV)
CYCLES	IQUANT	3	Cycles (#)
IMODE	SELECTOR	1	I/E Range Mode
IRANGE	QUANT	2.00000E+000	Max Current (mA)
AREA	QUANT	1.00000E+000	Sample Area (cm^2)
EQDELAY	QUANT	0.00000E+000	Equil. Time (s)
IRCOMP	SELECTOR	2	IRComp
PFCOR	QUANT	3.36300E+001	PF Corr. (ohm)
SAMPLINGMODE	SELECTOR	2	Sampling Mode
EOC	QUANT	0	Open Circuit (V)
ELECTRODETYPE	SELECTOR	0	Electrode Type
STRIPPING	TOGGLE	F	Used for Stripping
POLARITY	TOGGLE	F	Signal Polarity
SEQUENCER	TOGGLE	TRUE	Run as Sequence
PSTATMODEL	IQUANT	64	Pstat Model
PSTATSECTION	LABEL	IFC1010-20234	Pstat Section
PSTATSERIALNO	LABEL	20234	Pstat Serial Number
CTRLMODE	IQUANT	1	Control Mode
ELECTROMETER	IQUANT	0	RE=0 or CS=1
IESTAB	IQUANT	2	I/E Stability
CASPEED	IQUANT	4	Control Amp Speed
CONVENTION	IQUANT	1	Current Convention
ICHRANGE	IQUANT	2	Ich Range
ICHRANGEMODE	TOGGLE	F	Ich Auto Range
ICHOFFSETENABLE	TOGGLE	F	Ich Offset Enable
ICHOFFSET	QUANT	0	Ich Offset (V)
ICHFILTER	IQUANT	3	Ich Filter
VCHRANGE	IQUANT	2	Vch Range
VCHRANGEMODE	TOGGLE	F	Vch Auto Range
VCHOFFSETENABLE	TOGGLE	F	Vch Offset Enable
VCHOFFSET	QUANT	0	Vch Offset (V)
VCHFILTER	IQUANT	1	Vch Filter
IERANGELOWERLIMIT	IQUANT	4	I/E Range Lower Limit
IERANGEMODE	TOGGLE	F	I/E AutoRange
IERANGE	IQUANT	10	I/E Range
ACHSELECT	IQUANT	0	Ach Select
ACHRANGE	IQUANT	2	Ach Range
ACHOFFSETENABLE	TOGGLE	F	Ach Offset Enable
ACHOFFSET	QUANT	0	Ach Offset (V)
ACHFILTER	IQUANT	1	Ach Filter
SENSECABLEID	IQUANT	14	Sense Cable ID
PWRCABLEID	IQUANT	14	Power Cable ID
DCCALDATE	LABEL	7/15/2022	DC Calibration Date
ACCALDATE	LABEL	7/8/2020	AC Calibration Date
FRAMEWORKVERSION	LABEL	7.8.2	Framework Version
INSTRUMENTVERSION	LABEL	4.40	Instrument Version
CURVE1	TABLE
	Pt	T	Vf	Im	Vu	Sig	Ach	IERange	Over	Temp
	#	s	V vs. Ref.	A	V	V	V	#	bits	deg C
	0	0.04	-1.27017E-001	-5.93122E-007	0.00000E+000	-1.26993E-001	0.00000E+000	10	...........	1505.21
	10	0.44	-1.07029E-001	2.27060E-007	0.00000E+000	-1.06994E-001	0.00000E+000	10	...........	1505.12
	20	0.84	-8.70123E-002	3.83536E-007	0.00000E+000	-8.69959E-002	0.00000E+000	10	...........	1505.12
	30	1.24	-6.70171E-002	4.56216E-007	0.00000E+000	-6.69975E-002	0.00000E+000	10	...........	1505.21
	40	1.64	-4.70176E-002	4.35232E-007	0.00000E+000	-4.69991E-002	0.00000E+000	10	...........	1505.21
	50	2.04	-2.70202E-002	4.65526E-007	0.00000E+000	-2.70006E-002	0.00000E+000	10	...........	1505.21
	60	2.44	-7.00933E-003	4.99017E-007	0.00000E+000	-7.00217E-003	0.00000E+000	10	...........	1505.03
	70	2.84	1.30155E-002	5.08884E-007	0.00000E+000	1.29963E-002	0.00000E+000	10	...........	1505.03
	80	3.24	3.29932E-002	5.76839E-007	0.00000E+000	3.29947E-002	0.00000E+000	10	...........	1505.40
	90	3.64	5.30072E-002	6.29507E-007	0.00000E+000	5.29931E-002	0.00000E+000	10	...........	1505.40
	100	4.04	7.29628E-002	7.64861E-007	0.00000E+000	7.29916E-002	0.00000E+000	10	...........	1505.40
	110	4.44	9.29919E-002	1.03279E-006	0.00000E+000	9.29900E-002	0.00000E+000	10	...........	1505.03
	120	4.84	1.12992E-001	1.37381E-006	0.00000E+000	1.12988E-001	0.00000E+000	10	...........	1505.03
	130	5.24	1.33007E-001	1.81267E-006	0.00000E+000	1.32987E-001	0.00000E+000	10	...........	1505.49
	140	5.64	1.53004E-001	2.68983E-006	0.00000E+000	1.52985E-001	0.00000E+000	10	...........	1505.49
	150	6.04	1.73007E-001	3.74097E-006	0.00000E+000	1.72984E-001	0.00000E+000	10	...........	1505.49
	160	6.44	1.93019E-001	5.17802E-006	0.00000E+000	1.92982E-001	0.00000E+000	10	...........	1505.03
	170	6.84	2.13004E-001	7.17234E-006	0.00000E+000	2.12981E-001	0.00000E+000	10	...........	1505.03
	180	7.24	2.33020E-001	9.59856E-006	0.00000E+000	2.32979E-001	0.00000E+000	10	...........	1505.49
	190	7.64	2.52987E-001	1.22122E-005	0.00000E+000	2.52977E-001	0.00000E+000	10	...........	1505.49
	200	8.04	2.73005E-001	1.45290E-005	0.00000E+000	2.72976E-001	0.00000E+000	10	...........	1505.49
	210	8.44	2.93012E-001	1.57709E-005	0.00000E+000	2.92974E-001	0.00000E+000	10	...........	1505.03
	220	8.84	3.13058E-001	1.54806E-005	0.00000E+000	3.13023E-001	0.00000E+000	10	...........	1505.03
	230	9.24	3.33068E-001	1.43412E-005	0.00000E+000	3.33021E-001	0.00000E+000	10	...........	1505.49
	240	9.64	3.53066E-001	1.31967E-005	0.00000E+000	3.53020E-001	0.00000E+000	10	...........	1505.49
	250	10.04	3.73079E-001	1.22321E-005	0.00000E+000	3.73018E-001	0.00000E+000	10	...........	1505.49
	260	10.44	3.93078E-001	1.17891E-005	0.00000E+000	3.93017E-001	0.00000E+000	10	...........	1505.03
	270	10.84	4.13107E-001	1.17807E-005	0.00000E+000	4.13015E-001	0.00000E+000	10	...........	1505.03
	280	11.24	4.33082E-001	1.21262E-005	0.00000E+000	4.33013E-001	0.00000E+000	10	...........	1505.40
	290	11.64	4.53099E-001	1.31237E-005	0.00000E+000	4.53012E-001	0.00000E+000	10	...........	1505.40
	300	12.04	4.73084E-001	1.51922E-005	0.00000E+000	4.73010E-001	0.00000E+000	10	...........	1505.40
	310	12.44	4.93113E-001	1.98519E-005	0.00000E+000	4.93009E-001	0.00000E+000	10	...........	1505.03
	320	12.84	5.13115E-001	2.94644E-005	0.00000E+000	5.13007E-001	0.00000E+000	10	...........	1505.03
	330	13.24	5.33108E-001	4.58663E-005	0.00000E+000	5.33006E-001	0.00000E+000	10	...........	1505.40
	340	13.64	5.53105E-001	6.40296E-005	0.00000E+000	5.53004E-001	0.00000E+000	10	...........	1505.40
	350	14.04	5.73119E-001	7.41183E-005	0.00000E+000	5.73002E-001	0.00000E+000	10	...........	1505.40
	360	14.44	5.93124E-001	7.30104E-005	0.00000E+000	5.93001E-001	0.00000E+000	10	...........	1505.03
	370	14.84	6.13105E-001	6.59655E-005	0.00000E+000	6.12999E-001	0.00000E+000	10	...........	1505.03
	380	15.24	6.33121E-001	4.70916E-005	0.00000E+000	6.32998E-001	0.00000E+000	10	...........	1505.40
	390	15.64	6.53135E-001	2.89977E-005	0.00000E+000	6.52996E-001	0.00000E+000	10	...........	1505.40
	400	16.04	6.73150E-001	2.35800E-005	0.00000E+000	6.72995E-001	0.00000E+000	10	...........	1505.40
	410	16.44	6.93144E-001	2.28175E-005	0.00000E+000	6.92993E-001	0.00000E+000	10	...........	1505.03
	420	16.84	7.13118E-001	2.28529E-005	0.00000E+000	7.12992E-001	0.00000E+000	10	...........	1505.03
	430	17.24	7.33131E-001	2.31661E-005	0.00000E+000	7.32990E-001	0.00000E+000	10	...........	1505.03
	440	17.64	7.53130E-001	2.35651E-005	0.00000E+000	7.52988E-001	0.00000E+000	10	...........	1505.03
	450	18.04	7.73135E-001	2.38742E-005	0.00000E+000	7.72987E-001	0.00000E+000	10	...........	1505.03
	460	18.44	7.53125E-001	-8.51600E-007	0.00000E+000	7.52988E-001	0.00000E+000	10	...........	1505.03
	470	18.84	7.33138E-001	-4.65456E-006	0.00000E+000	7.32990E-001	0.00000E+000	10	...........	1505.03
	480	19.24	7.13115E-001	-6.56924E-006	0.00000E+000	7.12992E-001	0.00000E+000	10	...........	1505.12
	490	19.64	6.93136E-001	-7.81286E-006	0.00000E+000	6.92993E-001	0.00000E+000	10	...........	1505.12
	500	20.04	6.73141E-001	-8.72865E-006	0.00000E+000	6.72995E-001	0.00000E+000	10	...........	1505.12
	510	20.44	6.53151E-001	-9.31717E-006	0.00000E+000	6.52996E-001	0.00000E+000	10	...........	1505.03
	520	20.84	6.33108E-001	-9.45336E-006	0.00000E+000	6.32998E-001	0.00000E+000	10	...........	1505.03
	530	21.24	6.13111E-001	-9.31467E-006	0.00000E+000	6.12999E-001	0.00000E+000	10	...........	1505.21
	540	21.64	5.93115E-001	-9.00088E-006	0.00000E+000	5.93001E-001	0.00000E+000	10	...........	1505.21
	550	22.04	5.73104E-001	-8.34010E-006	0.00000E+000	5.73002E-001	0.00000E+000	10	...........	1505.21
	560	22.44	5.53114E-001	-7.65721E-006	0.00000E+000	5.53004E-001	0.00000E+000	10	...........	1505.03
	570	22.84	5.33103E-001	-6.98684E-006	0.00000E+000	5.33006E-001	0.00000E+000	10	...........	1505.03
	580	23.24	5.13120E-001	-6.42263E-006	0.00000E+000	5.13007E-001	0.00000E+000	10	...........	1505.03
	590	23.64	4.93116E-001	-5.71099E-006	0.00000E+000	4.93009E-001	0.00000E+000	10	...........	1505.03
	600	24.04	4.73080E-001	-5.27282E-006	0.00000E+000	4.73010E-001	0.00000E+000	10	...........	1505.03
	610	24.44	4.53096E-001	-4.85495E-006	0.00000E+000	4.53012E-001	0.00000E+000	10	...........	1505.03
	620	24.84	4.33082E-001	-4.72863E-006	0.00000E+000	4.33013E-001	0.00000E+000	10	...........	1505.03
	630	25.24	4.13102E-001	-4.41999E-006	0.00000E+000	4.13015E-001	0.00000E+000	10	...........	1505.03
	640	25.64	3.93076E-001	-4.54422E-006	0.00000E+000	3.93017E-001	0.00000E+000	10	...........	1505.03
	650	26.04	3.73077E-001	-4.61371E-006	0.00000E+000	3.73018E-001	0.00000E+000	10	...........	1505.03
	660	26.44	3.53060E-001	-4.54784E-006	0.00000E+000	3.53020E-001	0.00000E+000	10	...........	1505.49
	670	26.84	3.33084E-001	-4.33383E-006	0.00000E+000	3.33021E-001	0.00000E+000	10	...........	1505.49
	680	27.24	3.13069E-001	-4.25670E-006	0.00000E+000	3.13023E-001	0.00000E+000	10	...........	1505.03
	690	27.64	2.93000E-001	-4.10231E-006	0.00000E+000	2.92974E-001	0.00000E+000	10	...........	1505.03
	700	28.04	2.73009E-001	-3.94500E-006	0.00000E+000	2.72976E-001	0.00000E+000	10	...........	1505.03
	710	28.44	2.52999E-001	-3.92457E-006	0.00000E+000	2.52977E-001	0.00000E+000	10	...........	1505.49
	720	28.84	2.33012E-001	-3.91776E-006	0.00000E+000	2.32979E-001	0.00000E+000	10	...........	1505.49
	730	29.24	2.13011E-001	-3.92304E-006	0.00000E+000	2.12981E-001	0.00000E+000	10	...........	1505.03
	740	29.64	1.93024E-001	-3.94611E-006	0.00000E+000	1.92982E-001	0.00000E+000	10	...........	1505.03
	750	30.04	1.73025E-001	-3.83660E-006	0.00000E+000	1.72984E-001	0.00000E+000	10	...........	1505.03
	760	30.44	1.53014E-001	-4.12454E-006	0.00000E+000	1.52985E-001	0.00000E+000	10	...........	1505.03
	770	30.84	1.33001E-001	-4.70501E-006	0.00000E+000	1.32987E-001	0.00000E+000	10	...........	1505.03
	780	31.24	1.12993E-001	-6.11177E-006	0.00000E+000	1.12988E-001	0.00000E+000	10	...........	1505.03
	790	31.64	9.29977E-002	-9.15569E-006	0.00000E+000	9.29900E-002	0.00000E+000	10	...........	1505.03
	800	32.04	7.29877E-002	-1.28353E-005	0.00000E+000	7.29916E-002	0.00000E+000	10	...........	1505.03
	810	32.44	5.30026E-002	-1.49296E-005	0.00000E+000	5.29931E-002	0.00000E+000	10	...........	1505.49
	820	32.84	3.30044E-002	-1.98171E-005	0.00000E+000	3.29947E-002	0.00000E+000	10	...........	1505.49
	830	33.24	1.29994E-002	-2.74294E-005	0.00000E+000	1.29963E-002	0.00000E+000	10	...........	1505.03
	840	33.64	-7.01238E-003	-3.46080E-005	0.00000E+000	-7.00217E-003	0.00000E+000	10	...........	1505.03
	850	34.04	-2.70211E-002	-3.16020E-005	0.00000E+000	-2.70006E-002	0.00000E+000	10	...........	1505.03
	860	34.44	-4.70025E-002	-3.03856E-005	0.00000E+000	-4.69991E-002	0.00000E+000	10	...........	1505.49
	870	34.84	-6.70139E-002	-3.44614E-005	0.00000E+000	-6.69975E-002	0.00000E+000	10	...........	1505.49
	880	35.24	-8.70149E-002	-4.54288E-005	0.00000E+000	-8.69959E-002	0.00000E+000	10	...........	1505.12
	890	35.64	-1.07015E-001	-5.11044E-005	0.00000E+000	-1.06994E-001	0.00000E+000	10	...........	1505.12
	900	36.04	-1.27019E-001	-4.44449E-005	0.00000E+000	-1.26993E-001	0.00000E+000	10	...........	1505.12
	910	36.44	-1.46993E-001	-4.25142E-005	0.00000E+000	-1.46991E-001	0.00000E+000	10	...........	1505.49
	920	36.84	-1.67037E-001	-4.70794E-005	0.00000E+000	-1.66990E-001	0.00000E+000	10	...........	1505.49
	930	37.24	-1.87013E-001	-7.01066E-005	0.00000E+000	-1.86988E-001	0.00000E+000	10	...........	1505.12
	940	37.64	-2.07017E-001	-1.45484E-004	0.00000E+000	-2.06987E-001	0.00000E+000	10	...........	1505.12
	950	38.04	-2.26987E-001	-3.22576E-004	0.00000E+000	-2.26985E-001	0.00000E+000	10	...........	1505.12
CURVE2	TABLE
	Pt	T	Vf	Im	Vu	Sig	Ach	IERange	Over	Temp
	#	s	V vs. Ref.	A	V	V	V	#	bits	deg C
	951	38.08	-2.25010E-001	-2.48234E-004	0.00000E+000	-2.24985E-001	0.00000E+000	10	...........	1505.36
	962	38.52	-2.02983E-001	8.94086E-005	0.00000E+000	-2.02987E-001	0.00000E+000	10	...........	1505.49
	973	38.96	-1.81017E-001	9.44844E-005	0.00000E+000	-1.80989E-001	0.00000E+000	10	...........	1505.49
	984	39.4	-1.59020E-001	6.51485E-005	0.00000E+000	-1.58990E-001	0.00000E+000	10	...........	1505.12
	995	39.84	-1.36998E-001	5.22795E-005	0.00000E+000	-1.36992E-001	0.00000E+000	10	...........	1505.12
	1006	40.28	-1.15017E-001	4.94595E-005	0.00000E+000	-1.14994E-001	0.00000E+000	10	...........	1505.30
	1017	40.72	-9.30264E-002	5.17894E-005	0.00000E+000	-9.29955E-002	0.00000E+000	10	...........	1505.30
	1028	41.16	-7.09994E-002	4.50492E-005	0.00000E+000	-7.09972E-002	0.00000E+000	10	...........	1505.12
	1039	41.6	-4.89969E-002	3.90292E-005	0.00000E+000	-4.89989E-002	0.00000E+000	10	...........	1505.12
	1050	42.04	-2.70135E-002	3.76973E-005	0.00000E+000	-2.70006E-002	0.00000E+000	10	...........	1505.12
	1061	42.48	-4.99444E-003	3.73337E-005	0.00000E+000	-5.00235E-003	0.00000E+000	10	...........	1505.40
	1072	42.92	1.69898E-002	3.68733E-005	0.00000E+000	1.69959E-002	0.00000E+000	10	...........	1505.40
	1083	43.36	3.89762E-002	2.99759E-005	0.00000E+000	3.89942E-002	0.00000E+000	10	...........	1505.12
	1094	43.8	6.10025E-002	2.15245E-005	0.00000E+000	6.09925E-002	0.00000E+000	10	...........	1505.12
	1105	44.24	8.30014E-002	1.59339E-005	0.00000E+000	8.29908E-002	0.00000E+000	10	...........	1505.49
	1116	44.68	1.05014E-001	1.15542E-005	0.00000E+000	1.04989E-001	0.00000E+000	10	...........	1505.49
	1127	45.12	1.26996E-001	8.27226E-006	0.00000E+000	1.26987E-001	0.00000E+000	10	...........	1505.03
	1138	45.56	1.48978E-001	6.39760E-006	0.00000E+000	1.48986E-001	0.00000E+000	10	...........	1505.03
	1149	46	1.71004E-001	5.61104E-006	0.00000E+000	1.70984E-001	0.00000E+000	10	...........	1505.03
	1160	46.44	1.93019E-001	5.22055E-006	0.00000E+000	1.92982E-001	0.00000E+000	10	...........	1505.03
	1171	46.88	2.15005E-001	4.96541E-006	0.00000E+000	2.14980E-001	0.00000E+000	10	...........	1505.03
	1182	47.32	2.37027E-001	4.81463E-006	0.00000E+000	2.36979E-001	0.00000E+000	10	...........	1505.03
	1193	47.76	2.59031E-001	4.80281E-006	0.00000E+000	2.58977E-001	0.00000E+000	10	...........	1505.03
	1204	48.2	2.81000E-001	4.81532E-006	0.00000E+000	2.80975E-001	0.00000E+000	10	...........	1505.12
	1215	48.64	3.03065E-001	4.84965E-006	0.00000E+000	3.03024E-001	0.00000E+000	10	...........	1505.12
	1226	49.08	3.25068E-001	4.74751E-006	0.00000E+000	3.25022E-001	0.00000E+000	10	...........	1505.05
	1237	49.52	3.47075E-001	4.74653E-006	0.00000E+000	3.47020E-001	0.00000E+000	10	...........	1505.03
	1248	49.96	3.69067E-001	4.64217E-006	0.00000E+000	3.69018E-001	0.00000E+000	10	...........	1505.03
	1259	50.4	3.91073E-001	4.48402E-006	0.00000E+000	3.91017E-001	0.00000E+000	10	...........	1505.21
	1270	50.84	4.13108E-001	4.49625E-006	0.00000E+000	4.13015E-001	0.00000E+000	10	...........	1505.21
	1281	51.28	4.35104E-001	4.61910E-006	0.00000E+000	4.35013E-001	0.00000E+000	10	...........	1505.03
	1292	51.72	4.57083E-001	4.89801E-006	0.00000E+000	4.57012E-001	0.00000E+000	10	...........	1505.03
	1303	52.16	4.79086E-001	5.44762E-006	0.00000E+000	4.79010E-001	0.00000E+000	10	...........	1505.03
	1314	52.6	5.01104E-001	6.62731E-006	0.00000E+000	5.01008E-001	0.00000E+000	10	...........	1505.03
	1325	53.04	5.23119E-001	8.54866E-006	0.00000E+000	5.23006E-001	0.00000E+000	10	...........	1505.03
	1336	53.48	5.45112E-001	1.10877E-005	0.00000E+000	5.45005E-001	0.00000E+000	10	...........	1505.12
	1347	53.92	5.67118E-001	1.31939E-005	0.00000E+000	5.67003E-001	0.00000E+000	10	...........	1505.12
	1358	54.36	5.89127E-001	1.31116E-005	0.00000E+000	5.89001E-001	0.00000E+000	10	...........	1505.03
	1369	54.8	6.11116E-001	1.16746E-005	0.00000E+000	6.10999E-001	0.00000E+000	10	...........	1505.03
	1380	55.24	6.33128E-001	9.91554E-006	0.00000E+000	6.32998E-001	0.00000E+000	10	...........	1505.03
	1391	55.68	6.55127E-001	9.23655E-006	0.00000E+000	6.54996E-001	0.00000E+000	10	...........	1505.03
	1402	56.12	6.77135E-001	1.00116E-005	0.00000E+000	6.76994E-001	0.00000E+000	10	...........	1505.03
	1413	56.56	6.99137E-001	1.19414E-005	0.00000E+000	6.98993E-001	0.00000E+000	10	...........	1505.03
	1424	57	7.21123E-001	1.41911E-005	0.00000E+000	7.20991E-001	0.00000E+000	10	...........	1505.03
	1435	57.44	7.43154E-001	1.60406E-005	0.00000E+000	7.42989E-001	0.00000E+000	10	...........	1505.03
	1446	57.88	7.65134E-001	1.74492E-005	0.00000E+000	7.64987E-001	0.00000E+000	10	...........	1505.03
	1457	58.32	7.59141E-001	1.37457E-008	0.00000E+000	7.58988E-001	0.00000E+000	10	...........	1505.03
	1468	58.76	7.37118E-001	-3.40706E-006	0.00000E+000	7.36990E-001	0.00000E+000	10	...........	1505.03
	1479	59.2	7.15110E-001	-4.77727E-006	0.00000E+000	7.14991E-001	0.00000E+000	10	...........	1505.03
	1490	59.64	6.93135E-001	-5.43541E-006	0.00000E+000	6.92993E-001	0.00000E+000	10	...........	1505.03
	1501	60.08	6.71125E-001	-5.78533E-006	0.00000E+000	6.70995E-001	0.00000E+000	10	...........	1505.03
	1512	60.52	6.49127E-001	-5.84036E-006	0.00000E+000	6.48997E-001	0.00000E+000	10	...........	1505.03
	1523	60.96	6.27132E-001	-5.66596E-006	0.00000E+000	6.26998E-001	0.00000E+000	10	...........	1505.03
	1534	61.4	6.05128E-001	-5.46724E-006	0.00000E+000	6.05000E-001	0.00000E+000	10	...........	1505.40
[...]
	2600	104.04	4.73093E-001	-3.40442E-006	0.00000E+000	4.73010E-001	0.00000E+000	10	...........	1505.05
	2611	104.48	4.51097E-001	-3.44722E-006	0.00000E+000	4.51012E-001	0.00000E+000	10	...........	1505.12
	2622	104.92	4.29099E-001	-3.46250E-006	0.00000E+000	4.29014E-001	0.00000E+000	10	...........	1505.12
	2633	105.36	4.07095E-001	-3.49377E-006	0.00000E+000	4.07015E-001	0.00000E+000	10	...........	1505.30
	2644	105.8	3.85073E-001	-3.61690E-006	0.00000E+000	3.85017E-001	0.00000E+000	10	...........	1505.30
	2655	106.24	3.63066E-001	-3.65247E-006	0.00000E+000	3.63019E-001	0.00000E+000	10	...........	1505.12
	2666	106.68	3.41074E-001	-3.53060E-006	0.00000E+000	3.41021E-001	0.00000E+000	10	...........	1505.12
	2677	107.12	3.19071E-001	-3.54769E-006	0.00000E+000	3.19022E-001	0.00000E+000	10	...........	1505.40
	2688	107.56	2.97070E-001	-3.61189E-006	0.00000E+000	2.97024E-001	0.00000E+000	10	...........	1505.40
	2699	108	2.75014E-001	-3.61870E-006	0.00000E+000	2.74976E-001	0.00000E+000	10	...........	1505.40
	2710	108.44	2.52998E-001	-3.75044E-006	0.00000E+000	2.52977E-001	0.00000E+000	10	...........	1505.12
	2721	108.88	2.31005E-001	-3.61759E-006	0.00000E+000	2.30979E-001	0.00000E+000	10	...........	1505.12
	2732	109.32	2.09010E-001	-3.73710E-006	0.00000E+000	2.08981E-001	0.00000E+000	10	...........	1505.40
	2743	109.76	1.87012E-001	-3.69180E-006	0.00000E+000	1.86983E-001	0.00000E+000	10	...........	1505.40
	2754	110.2	1.65013E-001	-3.63441E-006	0.00000E+000	1.64984E-001	0.00000E+000	10	...........	1505.12
	2765	110.64	1.42996E-001	-4.11259E-006	0.00000E+000	1.42986E-001	0.00000E+000	10	...........	1505.12
	2776	111.08	1.20994E-001	-5.12079E-006	0.00000E+000	1.20988E-001	0.00000E+000	10	...........	1505.40
	2787	111.52	9.89885E-002	-7.74851E-006	0.00000E+000	9.89895E-002	0.00000E+000	10	...........	1505.40
	2798	111.96	7.70215E-002	-1.23516E-005	0.00000E+000	7.69912E-002	0.00000E+000	10	...........	1505.40
	2809	112.4	5.49999E-002	-1.49499E-005	0.00000E+000	5.49930E-002	0.00000E+000	10	...........	1505.12
	2820	112.84	3.29996E-002	-1.85639E-005	0.00000E+000	3.29947E-002	0.00000E+000	10	...........	1505.12
	2831	113.28	1.09834E-002	-2.88534E-005	0.00000E+000	1.09964E-002	0.00000E+000	10	...........	1505.40
	2842	113.72	-1.09888E-002	-3.75121E-005	0.00000E+000	-1.10019E-002	0.00000E+000	10	...........	1505.40
	2853	114.16	-3.30287E-002	-3.29875E-005	0.00000E+000	-3.30001E-002	0.00000E+000	10	...........	1505.03
	2864	114.6	-5.50312E-002	-3.16930E-005	0.00000E+000	-5.49984E-002	0.00000E+000	10	...........	1505.03
	2875	115.04	-7.70013E-002	-3.84824E-005	0.00000E+000	-7.69967E-002	0.00000E+000	10	...........	1505.14
	2886	115.48	-9.90108E-002	-5.30509E-005	0.00000E+000	-9.89950E-002	0.00000E+000	10	...........	1505.40
	2897	115.92	-1.21017E-001	-4.72328E-005	0.00000E+000	-1.20993E-001	0.00000E+000	10	...........	1505.40
	2908	116.36	-1.43003E-001	-4.31988E-005	0.00000E+000	-1.42992E-001	0.00000E+000	10	...........	1505.12
	2919	116.8	-1.64988E-001	-4.79135E-005	0.00000E+000	-1.64990E-001	0.00000E+000	10	...........	1505.12
	2930	117.24	-1.87016E-001	-7.16212E-005	0.00000E+000	-1.86988E-001	0.00000E+000	10	...........	1505.49
	2941	117.68	-2.09017E-001	-1.59250E-004	0.00000E+000	-2.08986E-001	0.00000E+000	10	...........	1505.49
	2950	118.04	-2.27002E-001	-3.22169E-004	0.00000E+000	-2.26985E-001	0.00000E+000	10	...........	1505.34
CURVE4	TABLE
	Pt	T	Vf	Im	Vu	Sig	Ach	IERange	Over	Temp
	#	s	V vs. Ref.	A	V	V	V	#	bits	deg C
	2951	118.08	-2.25024E-001	-2.47441E-004	0.00000E+000	-2.24985E-001	0.00000E+000	10	...........	1505.03
	2952	118.12	-2.23013E-001	-1.90081E-004	0.00000E+000	-2.22985E-001	0.00000E+000	10	...........	1505.03
	2953	118.16	-2.21024E-001	-1.41257E-004	0.00000E+000	-2.20985E-001	0.00000E+000	10	...........	1505.03
	2954	118.2	-2.19015E-001	-9.85163E-005	0.00000E+000	-2.18986E-001	0.00000E+000	10	...........	1505.03
	2955	118.24	-2.16998E-001	-6.09972E-005	0.00000E+000	-2.16986E-001	0.00000E+000	10	...........	1505.03
	2956	118.28	-2.15005E-001	-2.77398E-005	0.00000E+000	-2.14986E-001	0.00000E+000	10	...........	1505.03
	2957	118.32	-2.13011E-001	1.01028E-006	0.00000E+000	-2.12986E-001	0.00000E+000	10	...........	1505.03
	2958	118.36	-2.11013E-001	2.64715E-005	0.00000E+000	-2.10986E-001	0.00000E+000	10	...........	1505.03
	2959	118.4	-2.09007E-001	4.77211E-005	0.00000E+000	-2.08986E-001	0.00000E+000	10	...........	1505.03
	2960	118.44	-2.07020E-001	6.60399E-005	0.00000E+000	-2.06987E-001	0.00000E+000	10	...........	1505.03
	2961	118.48	-2.05005E-001	8.04538E-005	0.00000E+000	-2.04987E-001	0.00000E+000	10	...........	1505.03
	2962	118.52	-2.02996E-001	9.20569E-005	0.00000E+000	-2.02987E-001	0.00000E+000	10	...........	1505.03
	2963	118.56	-2.01016E-001	1.00384E-004	0.00000E+000	-2.00987E-001	0.00000E+000	10	...........	1505.03
	2964	118.6	-1.99007E-001	1.06390E-004	0.00000E+000	-1.98987E-001	0.00000E+000	10	...........	1505.03
	2965	118.64	-1.97010E-001	1.09749E-004	0.00000E+000	-1.96987E-001	0.00000E+000	10	...........	1505.03
	2966	118.68	-1.95010E-001	1.11623E-004	0.00000E+000	-1.94988E-001	0.00000E+000	10	...........	1505.03
	2967	118.72	-1.93013E-001	1.11561E-004	0.00000E+000	-1.92988E-001	0.00000E+000	10	...........	1505.03
	2968	118.76	-1.90989E-001	1.10788E-004	0.00000E+000	-1.90988E-001	0.00000E+000	10	...........	1505.03
	2969	118.8	-1.88997E-001	1.08525E-004	0.00000E+000	-1.88988E-001	0.00000E+000	10	...........	1505.03
	2970	118.84	-1.87004E-001	1.05976E-004	0.00000E+000	-1.86988E-001	0.00000E+000	10	...........	1505.03
	2971	118.88	-1.84999E-001	1.02868E-004	0.00000E+000	-1.84988E-001	0.00000E+000	10	...........	1505.03
	2972	118.92	-1.83013E-001	9.93631E-005	0.00000E+000	-1.82988E-001	0.00000E+000	10	...........	1505.03
	2973	118.96	-1.81016E-001	9.58104E-005	0.00000E+000	-1.80989E-001	0.00000E+000	10	...........	1505.03
	2974	119	-1.79003E-001	9.20518E-005	0.00000E+000	-1.78989E-001	0.00000E+000	10	...........	1505.03
	2975	119.04	-1.76999E-001	8.88344E-005	0.00000E+000	-1.76989E-001	0.00000E+000	10	...........	1505.15
	2976	119.08	-1.74995E-001	8.53263E-005	0.00000E+000	-1.74989E-001	0.00000E+000	10	...........	1505.40
	2977	119.12	-1.72996E-001	8.24103E-005	0.00000E+000	-1.72989E-001	0.00000E+000	10	...........	1505.40
	2978	119.16	-1.71006E-001	7.93761E-005	0.00000E+000	-1.70989E-001	0.00000E+000	10	...........	1505.40
	2979	119.2	-1.69000E-001	7.68959E-005	0.00000E+000	-1.68990E-001	0.00000E+000	10	...........	1505.40
	2980	119.24	-1.67021E-001	7.42069E-005	0.00000E+000	-1.66990E-001	0.00000E+000	10	...........	1505.40
	2981	119.28	-1.65000E-001	7.20906E-005	0.00000E+000	-1.64990E-001	0.00000E+000	10	...........	1505.40
	2982	119.32	-1.62999E-001	6.99951E-005	0.00000E+000	-1.62990E-001	0.00000E+000	10	...........	1505.40
	2983	119.36	-1.61020E-001	6.82490E-005	0.00000E+000	-1.60990E-001	0.00000E+000	10	...........	1505.40
	2984	119.4	-1.59006E-001	6.68008E-005	0.00000E+000	-1.58990E-001	0.00000E+000	10	...........	1505.40
	2985	119.44	-1.57012E-001	6.54395E-005	0.00000E+000	-1.56990E-001	0.00000E+000	10	...........	1505.40
	2986	119.48	-1.55016E-001	6.42922E-005	0.00000E+000	-1.54991E-001	0.00000E+000	10	...........	1505.40
	2987	119.52	-1.52985E-001	6.26566E-005	0.00000E+000	-1.52991E-001	0.00000E+000	10	...........	1505.40
	2988	119.56	-1.51001E-001	6.13442E-005	0.00000E+000	-1.50991E-001	0.00000E+000	10	...........	1505.40
	2989	119.6	-1.48980E-001	5.97063E-005	0.00000E+000	-1.48991E-001	0.00000E+000	10	...........	1505.40
	2990	119.64	-1.46996E-001	5.87390E-005	0.00000E+000	-1.46991E-001	0.00000E+000	10	...........	1505.40
	2991	119.68	-1.45000E-001	5.73728E-005	0.00000E+000	-1.44991E-001	0.00000E+000	10	...........	1505.40
	2992	119.72	-1.43006E-001	5.65650E-005	0.00000E+000	-1.42992E-001	0.00000E+000	10	...........	1505.40
	2993	119.76	-1.40991E-001	5.57993E-005	0.00000E+000	-1.40992E-001	0.00000E+000	10	...........	1505.40
	2994	119.8	-1.39003E-001	5.48522E-005	0.00000E+000	-1.38992E-001	0.00000E+000	10	...........	1505.40
	2995	119.84	-1.37006E-001	5.45165E-005	0.00000E+000	-1.36992E-001	0.00000E+000	10	...........	1505.40
	2996	119.88	-1.35031E-001	5.35569E-005	0.00000E+000	-1.34992E-001	0.00000E+000	10	...........	1505.40
	2997	119.92	-1.33028E-001	5.34878E-005	0.00000E+000	-1.32992E-001	0.00000E+000	10	...........	1505.40
	2998	119.96	-1.31031E-001	5.29292E-005	0.00000E+000	-1.30993E-001	0.00000E+000	10	...........	1505.40
	2999	120	-1.29030E-001	5.27812E-005	0.00000E+000	-1.28993E-001	0.00000E+000	10	...........	1505.40
	3000	120.04	-1.27020E-001	5.25174E-005	0.00000E+000	-1.26993E-001	0.00000E+000	10	...........	1505.27