File: data/Jesus_data/Test_Break_in.DTA
EXPLAIN
TAG	CV
TITLE	LABEL	Cyclic Voltammetry	Test Identifier
DATE	LABEL	7/17/2023	Date
TIME	LABEL	19:32:03	Time
NOTES	NOTES	1	Notes...

PSTAT	PSTAT	IFC1010-20234	Potentiostat
VINIT	POTEN	-2.27000E-001	F	Initial E (V)
VLIMIT1	POTEN	1.27400E+000	F	Scan Limit 1 (V)
VLIMIT2	POTEN	-2.27000E-001	F	Scan Limit 2 (V)
VFINAL	POTEN	-1.27000E-001	F	Final E (V)
SCANRATE	QUANT	4.99999E+001	Scan Rate (mV/s)
STEPSIZE	QUANT	2.00000E+000	Step Size (mV)
CYCLES	IQUANT	30	Cycles (#)
IMODE	SELECTOR	1	I/E Range Mode
IRANGE	QUANT	2.00000E+000	Max Current (mA)
AREA	QUANT	1.00000E+000	Sample Area (cm^2)
EQDELAY	QUANT	5.00000E+000	Equil. Time (s)
IRCOMP	SELECTOR	2	IRComp
PFCOR	QUANT	3.36300E+001	PF Corr. (ohm)
SAMPLINGMODE	SELECTOR	2	Sampling Mode
EOC	QUANT	0	Open Circuit (V)
ELECTRODETYPE	SELECTOR	0	Electrode Type
STRIPPING	TOGGLE	F	Used for Stripping
POLARITY	TOGGLE	F	Signal Polarity
SEQUENCER	TOGGLE	TRUE	Run as Sequence
PSTATMODEL	IQUANT	64	Pstat Model
PSTATSECTION	LABEL	IFC1010-20234	Pstat Section
PSTATSERIALNO	LABEL	20234	Pstat Serial Number
CTRLMODE	IQUANT	1	Control Mode
ELECTROMETER	IQUANT	0	RE=0 or CS=1
IESTAB	IQUANT	2	I/E Stability
CASPEED	IQUANT	4	Control Amp Speed
CONVENTION	IQUANT	1	Current Convention
ICHRANGE	IQUANT	2	Ich Range
ICHRANGEMODE	TOGGLE	F	Ich Auto Range
ICHOFFSETENABLE	TOGGLE	F	Ich Offset Enable
ICHOFFSET	QUANT	0	Ich Offset (V)
ICHFILTER	IQUANT	3	Ich Filter
VCHRANGE	IQUANT	2	Vch Range
VCHRANGEMODE	TOGGLE	F	Vch Auto Range
VCHOFFSETENABLE	TOGGLE	F	Vch Offset Enable
VCHOFFSET	QUANT	0	Vch Offset (V)
VCHFILTER	IQUANT	1	Vch Filter
IERANGELOWERLIMIT	IQUANT	4	I/E Range Lower Limit
IERANGEMODE	TOGGLE	F	I/E AutoRange
IERANGE	IQUANT	10	I/E Range
ACHSELECT	IQUANT	0	Ach Select
ACHRANGE	IQUANT	2	Ach Range
ACHOFFSETENABLE	TOGGLE	F	Ach Offset Enable
ACHOFFSET	QUANT	0	Ach Offset (V)
ACHFILTER	IQUANT	1	Ach Filter
SENSECABLEID	IQUANT	14	Sense Cable ID
PWRCABLEID	IQUANT	14	Power Cable ID
DCCALDATE	LABEL	7/15/2022	DC Calibration Date
ACCALDATE	LABEL	7/8/2020	AC Calibration Date
FRAMEWORKVERSION	LABEL	7.8.2	Framework Version
INSTRUMENTVERSION	LABEL	4.40	Instrument Version
CURVE1	TABLE
	Pt	T	Vf	Im	Vu	Sig	Ach	IERange	Over	Temp
	#	s	V vs. Ref.	A	V	V	V	#	bits	deg C
	0	0.04	-2.26972E-001	-1.14515E-004	0.00000E+000	-2.26987E-001	0.00000E+000	10	...........	1505.77
	15	0.64	-1.96983E-001	2.36413E-004	0.00000E+000	-1.96990E-001	0.00000E+000	10	...........	1505.77
	30	1.24	-1.67013E-001	1.61629E-004	0.00000E+000	-1.66992E-001	0.00000E+000	10	...........	1505.77
	45	1.84	-1.36997E-001	1.13076E-004	0.00000E+000	-1.36995E-001	0.00000E+000	10	...........	1505.49
	60	2.44	-1.06992E-001	9.20892E-005	0.00000E+000	-1.06997E-001	0.00000E+000	10	...........	1505.49
	75	3.04	-7.69799E-002	8.02427E-005	0.00000E+000	-7.69992E-002	0.00000E+000	10	...........	1505.12
	90	3.64	-4.69765E-002	7.03788E-005	0.00000E+000	-4.70016E-002	0.00000E+000	10	...........	1505.12
	105	4.24	-1.69737E-002	6.30272E-005	0.00000E+000	-1.70039E-002	0.00000E+000	10	...........	1505.12
	120	4.84	1.30219E-002	5.65013E-005	0.00000E+000	1.29938E-002	0.00000E+000	10	...........	1505.12
	135	5.44	4.30077E-002	4.79357E-005	0.00000E+000	4.29914E-002	0.00000E+000	10	...........	1505.12
	150	6.04	7.30054E-002	3.86299E-005	0.00000E+000	7.29890E-002	0.00000E+000	10	...........	1505.12
	165	6.64	1.03037E-001	3.00472E-005	0.00000E+000	1.02987E-001	0.00000E+000	10	...........	1505.12
	180	7.24	1.33012E-001	2.32087E-005	0.00000E+000	1.32984E-001	0.00000E+000	10	...........	1505.21
	195	7.84	1.63024E-001	1.89349E-005	0.00000E+000	1.62982E-001	0.00000E+000	10	...........	1505.03
	210	8.44	1.93027E-001	1.62482E-005	0.00000E+000	1.92980E-001	0.00000E+000	10	...........	1505.03
	225	9.04	2.23007E-001	1.44845E-005	0.00000E+000	2.22977E-001	0.00000E+000	10	...........	1505.03
	240	9.64	2.53011E-001	1.32172E-005	0.00000E+000	2.52975E-001	0.00000E+000	10	...........	1505.03
	255	10.24	2.83101E-001	1.22527E-005	0.00000E+000	2.83023E-001	0.00000E+000	10	...........	1505.12
	270	10.84	3.13088E-001	1.13597E-005	0.00000E+000	3.13020E-001	0.00000E+000	10	...........	1505.03
	285	11.44	3.43088E-001	1.06796E-005	0.00000E+000	3.43018E-001	0.00000E+000	10	...........	1505.03
	300	12.04	3.73088E-001	1.02370E-005	0.00000E+000	3.73016E-001	0.00000E+000	10	...........	1505.12
	315	12.64	4.03084E-001	9.75434E-006	0.00000E+000	4.03013E-001	0.00000E+000	10	...........	1505.12
	330	13.24	4.33099E-001	9.56993E-006	0.00000E+000	4.33011E-001	0.00000E+000	10	...........	1505.12
	345	13.84	4.63113E-001	9.63747E-006	0.00000E+000	4.63009E-001	0.00000E+000	10	...........	1505.12
	360	14.44	4.93113E-001	9.83118E-006	0.00000E+000	4.93006E-001	0.00000E+000	10	...........	1505.12
	375	15.04	5.23130E-001	1.01833E-005	0.00000E+000	5.23004E-001	0.00000E+000	10	...........	1505.30
	390	15.64	5.53131E-001	1.06512E-005	0.00000E+000	5.53002E-001	0.00000E+000	10	...........	1505.30
	405	16.24	5.83131E-001	1.10441E-005	0.00000E+000	5.82999E-001	0.00000E+000	10	...........	1505.12
	420	16.84	6.13117E-001	1.16936E-005	0.00000E+000	6.12997E-001	0.00000E+000	10	...........	1505.40
	435	17.44	6.43136E-001	1.23216E-005	0.00000E+000	6.42994E-001	0.00000E+000	10	...........	1505.40
	450	18.04	6.73129E-001	1.32774E-005	0.00000E+000	6.72992E-001	0.00000E+000	10	...........	1505.12
	465	18.64	7.03134E-001	1.43565E-005	0.00000E+000	7.02990E-001	0.00000E+000	10	...........	1505.12
	480	19.24	7.33146E-001	1.56439E-005	0.00000E+000	7.32987E-001	0.00000E+000	10	...........	1505.49
	495	19.84	7.63147E-001	1.73829E-005	0.00000E+000	7.62985E-001	0.00000E+000	10	...........	1505.12
	510	20.44	7.93135E-001	1.94881E-005	0.00000E+000	7.92983E-001	0.00000E+000	10	...........	1505.12
	525	21.04	8.23162E-001	2.16381E-005	0.00000E+000	8.22980E-001	0.00000E+000	10	...........	1505.12
	540	21.64	8.53175E-001	2.39565E-005	0.00000E+000	8.52978E-001	0.00000E+000	10	...........	1505.12
	555	22.24	8.83152E-001	2.64560E-005	0.00000E+000	8.82976E-001	0.00000E+000	10	...........	1505.12
	570	22.84	9.13187E-001	2.90942E-005	0.00000E+000	9.12973E-001	0.00000E+000	10	...........	1505.21
	585	23.44	9.43220E-001	3.18504E-005	0.00000E+000	9.43021E-001	0.00000E+000	10	...........	1505.21
	600	24.04	9.73222E-001	3.44475E-005	0.00000E+000	9.73019E-001	0.00000E+000	10	...........	1505.12
	615	24.64	1.00322E+000	3.72519E-005	0.00000E+000	1.00302E+000	0.00000E+000	10	...........	1505.12
	630	25.24	1.03323E+000	3.96875E-005	0.00000E+000	1.03301E+000	0.00000E+000	10	...........	1505.21
	645	25.84	1.06325E+000	4.19935E-005	0.00000E+000	1.06301E+000	0.00000E+000	10	...........	1505.12
	660	26.44	1.09322E+000	4.39294E-005	0.00000E+000	1.09301E+000	0.00000E+000	10	...........	1505.12
	675	27.04	1.12324E+000	4.56967E-005	0.00000E+000	1.12301E+000	0.00000E+000	10	...........	1505.30
	690	27.64	1.15326E+000	4.76504E-005	0.00000E+000	1.15300E+000	0.00000E+000	10	...........	1505.30
	705	28.24	1.18325E+000	4.95274E-005	0.00000E+000	1.18300E+000	0.00000E+000	10	...........	1505.49
	720	28.84	1.21323E+000	5.14602E-005	0.00000E+000	1.21300E+000	0.00000E+000	10	...........	1505.12
	735	29.44	1.24328E+000	5.35181E-005	0.00000E+000	1.24300E+000	0.00000E+000	10	...........	1505.12
	750	30.04	1.27326E+000	5.56057E-005	0.00000E+000	1.27300E+000	0.00000E+000	10	...........	1505.12
	765	30.64	1.24328E+000	2.56831E-005	0.00000E+000	1.24300E+000	0.00000E+000	10	...........	1505.12
	780	31.24	1.21324E+000	1.49698E-005	0.00000E+000	1.21300E+000	0.00000E+000	10	...........	1505.12
	795	31.84	1.18324E+000	9.57882E-006	0.00000E+000	1.18300E+000	0.00000E+000	10	...........	1505.21
	810	32.44	1.15326E+000	6.17094E-006	0.00000E+000	1.15300E+000	0.00000E+000	10	...........	1505.21
	825	33.04	1.12323E+000	4.04934E-006	0.00000E+000	1.12301E+000	0.00000E+000	10	...........	1505.12
	840	33.64	1.09322E+000	2.47610E-006	0.00000E+000	1.09301E+000	0.00000E+000	10	...........	1505.12
	855	34.24	1.06325E+000	1.32559E-006	0.00000E+000	1.06301E+000	0.00000E+000	10	...........	1505.21
	870	34.84	1.03323E+000	3.87983E-007	0.00000E+000	1.03301E+000	0.00000E+000	10	...........	1505.12
	885	35.44	1.00322E+000	-3.36589E-007	0.00000E+000	1.00302E+000	0.00000E+000	10	...........	1505.12
	900	36.04	9.73226E-001	-1.10271E-006	0.00000E+000	9.73019E-001	0.00000E+000	10	...........	1505.21
	915	36.64	9.43207E-001	-1.91761E-006	0.00000E+000	9.43021E-001	0.00000E+000	10	...........	1505.21
	930	37.24	9.13171E-001	-2.58104E-006	0.00000E+000	9.12973E-001	0.00000E+000	10	...........	1505.12
	945	37.84	8.83150E-001	-3.42624E-006	0.00000E+000	8.82976E-001	0.00000E+000	10	...........	1505.21
	960	38.44	8.53173E-001	-4.42165E-006	0.00000E+000	8.52978E-001	0.00000E+000	10	...........	1505.21
	975	39.04	8.23170E-001	-5.52616E-006	0.00000E+000	8.22980E-001	0.00000E+000	10	...........	1505.12
	990	39.64	7.93135E-001	-6.84884E-006	0.00000E+000	7.92983E-001	0.00000E+000	10	...........	1505.12
	1005	40.24	7.63146E-001	-8.52659E-006	0.00000E+000	7.62985E-001	0.00000E+000	10	...........	1505.21
	1020	40.84	7.33157E-001	-1.05283E-005	0.00000E+000	7.32987E-001	0.00000E+000	10	...........	1505.03
	1035	41.44	7.03129E-001	-1.31447E-005	0.00000E+000	7.02990E-001	0.00000E+000	10	...........	1505.03
	1050	42.04	6.73141E-001	-1.64535E-005	0.00000E+000	6.72992E-001	0.00000E+000	10	...........	1505.49
	1065	42.64	6.43135E-001	-2.10152E-005	0.00000E+000	6.42994E-001	0.00000E+000	10	...........	1505.49
	1080	43.24	6.13119E-001	-2.67541E-005	0.00000E+000	6.12997E-001	0.00000E+000	10	...........	1505.03
	1095	43.84	5.83117E-001	-3.38321E-005	0.00000E+000	5.82999E-001	0.00000E+000	10	...........	1505.21
	1110	44.44	5.53125E-001	-4.17221E-005	0.00000E+000	5.53002E-001	0.00000E+000	10	...........	1505.21
	1125	45.04	5.23112E-001	-4.77245E-005	0.00000E+000	5.23004E-001	0.00000E+000	10	...........	1505.03
	1140	45.64	4.93115E-001	-4.62944E-005	0.00000E+000	4.93006E-001	0.00000E+000	10	...........	1505.03
	1155	46.24	4.63121E-001	-4.01725E-005	0.00000E+000	4.63009E-001	0.00000E+000	10	...........	1505.12
	1170	46.84	4.33107E-001	-3.10552E-005	0.00000E+000	4.33011E-001	0.00000E+000	10	...........	1505.30
	1185	47.44	4.03090E-001	-2.35422E-005	0.00000E+000	4.03013E-001	0.00000E+000	10	...........	1505.30
	1200	48.04	3.73084E-001	-1.80801E-005	0.00000E+000	3.73016E-001	0.00000E+000	10	...........	1505.21
	1215	48.64	3.43084E-001	-1.38881E-005	0.00000E+000	3.43018E-001	0.00000E+000	10	...........	1505.21
	1230	49.24	3.13082E-001	-1.10873E-005	0.00000E+000	3.13020E-001	0.00000E+000	10	...........	1505.12
	1245	49.84	2.83110E-001	-9.15027E-006	0.00000E+000	2.83023E-001	0.00000E+000	10	...........	1505.12
	1260	50.44	2.53017E-001	-8.13317E-006	0.00000E+000	2.52975E-001	0.00000E+000	10	...........	1505.12
	1275	51.04	2.23022E-001	-7.52770E-006	0.00000E+000	2.22977E-001	0.00000E+000	10	...........	1505.03
	1290	51.64	1.93024E-001	-7.34718E-006	0.00000E+000	1.92980E-001	0.00000E+000	10	...........	1505.03
	1305	52.24	1.63008E-001	-7.68167E-006	0.00000E+000	1.62982E-001	0.00000E+000	10	...........	1505.12
	1320	52.84	1.33013E-001	-8.60872E-006	0.00000E+000	1.32984E-001	0.00000E+000	10	...........	1505.40
	1335	53.44	1.03036E-001	-1.05055E-005	0.00000E+000	1.02987E-001	0.00000E+000	10	...........	1505.40
	1350	54.04	7.30014E-002	-1.42998E-005	0.00000E+000	7.29890E-002	0.00000E+000	10	...........	1505.21
	1365	54.64	4.30069E-002	-2.10760E-005	0.00000E+000	4.29914E-002	0.00000E+000	10	...........	1505.21
	1380	55.24	1.30366E-002	-2.80663E-005	0.00000E+000	1.29938E-002	0.00000E+000	10	...........	1505.30
	1395	55.84	-1.69845E-002	-3.59547E-005	0.00000E+000	-1.70039E-002	0.00000E+000	10	...........	1505.21
	1410	56.44	-4.69924E-002	-4.24816E-005	0.00000E+000	-4.70016E-002	0.00000E+000	10	...........	1505.21
	1425	57.04	-7.69982E-002	-4.96079E-005	0.00000E+000	-7.69992E-002	0.00000E+000	10	...........	1505.58
	1440	57.64	-1.06979E-001	-5.93603E-005	0.00000E+000	-1.06997E-001	0.00000E+000	10	...........	1505.58
	1455	58.24	-1.36991E-001	-6.80713E-005	0.00000E+000	-1.36995E-001	0.00000E+000	10	...........	1505.12
	1470	58.84	-1.66987E-001	-7.90366E-005	0.00000E+000	-1.66992E-001	0.00000E+000	10	...........	1505.40
	1485	59.44	-1.96974E-001	-1.30554E-004	0.00000E+000	-1.96990E-001	0.00000E+000	10	...........	1505.40
	1500	60.04	-2.26984E-001	-3.36954E-004	0.00000E+000	-2.26987E-001	0.00000E+000	10	...........	1505.12
CURVE2	TABLE
	Pt	T	Vf	Im	Vu	Sig	Ach	IERange	Over	Temp
	#	s	V vs. Ref.	A	V	V	V	#	bits	deg C
	1501	60.08	-2.24981E-001	-2.62392E-004	0.00000E+000	-2.24988E-001	0.00000E+000	10	...........	1505.12
	1517	60.72	-1.93000E-001	9.66990E-005	0.00000E+000	-1.92990E-001	0.00000E+000	10	...........	1505.12
	1533	61.36	-1.60994E-001	6.82774E-005	0.00000E+000	-1.60993E-001	0.00000E+000	10	...........	1505.40
	1549	62	-1.28987E-001	5.59988E-005	0.00000E+000	-1.28995E-001	0.00000E+000	10	...........	1505.12
	1565	62.64	-9.69785E-002	5.39063E-005	0.00000E+000	-9.69977E-002	0.00000E+000	10	...........	1505.12
	1581	63.28	-6.49904E-002	4.96147E-005	0.00000E+000	-6.50002E-002	0.00000E+000	10	...........	1505.49
	1597	63.92	-3.29911E-002	4.64067E-005	0.00000E+000	-3.30027E-002	0.00000E+000	10	...........	1505.12
	1613	64.56	-9.88951E-004	4.50655E-005	0.00000E+000	-1.00517E-003	0.00000E+000	10	...........	1505.12
	1629	65.2	3.10164E-002	4.00220E-005	0.00000E+000	3.09923E-002	0.00000E+000	10	...........	1505.49
	1645	65.84	6.29906E-002	2.92993E-005	0.00000E+000	6.29898E-002	0.00000E+000	10	...........	1505.12
	1661	66.48	9.50072E-002	2.05095E-005	0.00000E+000	9.49873E-002	0.00000E+000	10	...........	1505.12
	1677	67.12	1.27007E-001	1.35106E-005	0.00000E+000	1.26985E-001	0.00000E+000	10	...........	1505.49
	1693	67.76	1.59019E-001	9.50044E-006	0.00000E+000	1.58982E-001	0.00000E+000	10	...........	1505.32
	1709	68.4	1.91011E-001	7.52601E-006	0.00000E+000	1.90980E-001	0.00000E+000	10	...........	1505.03
	1725	69.04	2.23005E-001	6.56658E-006	0.00000E+000	2.22977E-001	0.00000E+000	10	...........	1505.49
	1741	69.68	2.55013E-001	6.07756E-006	0.00000E+000	2.54975E-001	0.00000E+000	10	...........	1505.49
	1757	70.32	2.87070E-001	5.67831E-006	0.00000E+000	2.87022E-001	0.00000E+000	10	...........	1505.03
	1773	70.96	3.19072E-001	5.41052E-006	0.00000E+000	3.19020E-001	0.00000E+000	10	...........	1505.49
	1789	71.6	3.51079E-001	5.02155E-006	0.00000E+000	3.51017E-001	0.00000E+000	10	...........	1505.49
	1805	72.24	3.83071E-001	4.86340E-006	0.00000E+000	3.83015E-001	0.00000E+000	10	...........	1505.03
	1821	72.88	4.15105E-001	4.78975E-006	0.00000E+000	4.15012E-001	0.00000E+000	10	...........	1505.21
	1837	73.52	4.47090E-001	4.88036E-006	0.00000E+000	4.47010E-001	0.00000E+000	10	...........	1505.21
	1853	74.16	4.79108E-001	5.07227E-006	0.00000E+000	4.79007E-001	0.00000E+000	10	...........	1505.03
	1869	74.8	5.11126E-001	5.59812E-006	0.00000E+000	5.11005E-001	0.00000E+000	10	...........	1505.30
	1885	75.44	5.43114E-001	6.12744E-006	0.00000E+000	5.43002E-001	0.00000E+000	10	...........	1505.30
	1901	76.08	5.75102E-001	6.79560E-006	0.00000E+000	5.75000E-001	0.00000E+000	10	...........	1505.03
	1917	76.72	6.07127E-001	7.62745E-006	0.00000E+000	6.06997E-001	0.00000E+000	10	...........	1505.03
	1933	77.36	6.39126E-001	8.55311E-006	0.00000E+000	6.38995E-001	0.00000E+000	10	...........	1505.40
	1949	78	6.71139E-001	1.00395E-005	0.00000E+000	6.70992E-001	0.00000E+000	10	...........	1505.03
	1965	78.64	7.03127E-001	1.18263E-005	0.00000E+000	7.02990E-001	0.00000E+000	10	...........	1505.03
	1981	79.28	7.35139E-001	1.40834E-005	0.00000E+000	7.34987E-001	0.00000E+000	10	...........	1505.03
	1997	79.92	7.67151E-001	1.62480E-005	0.00000E+000	7.66985E-001	0.00000E+000	10	...........	1505.03
	2013	80.56	7.99158E-001	1.83023E-005	0.00000E+000	7.98982E-001	0.00000E+000	10	...........	1505.03
	2029	81.2	8.31157E-001	2.04545E-005	0.00000E+000	8.30980E-001	0.00000E+000	10	...........	1505.12
	2045	81.84	8.63169E-001	2.26823E-005	0.00000E+000	8.62977E-001	0.00000E+000	10	...........	1505.49
	2061	82.48	8.95153E-001	2.50824E-005	0.00000E+000	8.94975E-001	0.00000E+000	10	...........	1505.49
	2077	83.12	9.27223E-001	2.72839E-005	0.00000E+000	9.27022E-001	0.00000E+000	10	...........	1505.03
	2093	83.76	9.59206E-001	2.95660E-005	0.00000E+000	9.59020E-001	0.00000E+000	10	...........	1505.03
	2109	84.4	9.91224E-001	3.19123E-005	0.00000E+000	9.91017E-001	0.00000E+000	10	...........	1505.03
	2125	85.04	1.02322E+000	3.40446E-005	0.00000E+000	1.02301E+000	0.00000E+000	10	...........	1505.21
	2141	85.68	1.05524E+000	3.58324E-005	0.00000E+000	1.05501E+000	0.00000E+000	10	...........	1505.21
	2157	86.32	1.08723E+000	3.78737E-005	0.00000E+000	1.08701E+000	0.00000E+000	10	...........	1505.12
	2173	86.96	1.11924E+000	3.96637E-005	0.00000E+000	1.11901E+000	0.00000E+000	10	...........	1505.12
	2189	87.6	1.15124E+000	4.16108E-005	0.00000E+000	1.15100E+000	0.00000E+000	10	...........	1505.12
	2205	88.24	1.18324E+000	4.34497E-005	0.00000E+000	1.18300E+000	0.00000E+000	10	...........	1505.49
	2221	88.88	1.21525E+000	4.53784E-005	0.00000E+000	1.21500E+000	0.00000E+000	10	...........	1505.12
	2237	89.52	1.24726E+000	4.77506E-005	0.00000E+000	1.24700E+000	0.00000E+000	10	...........	1505.12
	2253	90.16	1.26726E+000	3.94384E-005	0.00000E+000	1.26700E+000	0.00000E+000	10	...........	1505.58
	2269	90.8	1.23526E+000	1.90355E-005	0.00000E+000	1.23500E+000	0.00000E+000	10	...........	1505.12
[...]
	3161	126.48	9.50193E-002	2.06425E-005	0.00000E+000	9.49873E-002	0.00000E+000	10	...........	1505.12
	3177	127.12	1.27019E-001	1.31718E-005	0.00000E+000	1.26985E-001	0.00000E+000	10	...........	1505.49
	3193	127.76	1.59017E-001	9.11175E-006	0.00000E+000	1.58982E-001	0.00000E+000	10	...........	1505.16
	3209	128.4	1.91010E-001	7.30241E-006	0.00000E+000	1.90980E-001	0.00000E+000	10	...........	1505.12
	3225	129.04	2.23018E-001	6.20179E-006	0.00000E+000	2.22977E-001	0.00000E+000	10	...........	1505.49
	3241	129.68	2.55015E-001	6.05671E-006	0.00000E+000	2.54975E-001	0.00000E+000	10	...........	1505.49
	3257	130.32	2.87063E-001	5.71485E-006	0.00000E+000	2.87022E-001	0.00000E+000	10	...........	1505.30
	3273	130.96	3.19082E-001	5.51794E-006	0.00000E+000	3.19020E-001	0.00000E+000	10	...........	1505.12
	3289	131.6	3.51072E-001	5.16135E-006	0.00000E+000	3.51017E-001	0.00000E+000	10	...........	1505.12
	3305	132.24	3.83083E-001	4.88286E-006	0.00000E+000	3.83015E-001	0.00000E+000	10	...........	1505.12
	3321	132.88	4.15120E-001	4.79531E-006	0.00000E+000	4.15012E-001	0.00000E+000	10	...........	1505.21
	3337	133.52	4.47108E-001	4.63564E-006	0.00000E+000	4.47010E-001	0.00000E+000	10	...........	1505.21
	3353	134.16	4.79107E-001	4.89759E-006	0.00000E+000	4.79007E-001	0.00000E+000	10	...........	1505.12
	3369	134.8	5.11106E-001	5.30504E-006	0.00000E+000	5.11005E-001	0.00000E+000	10	...........	1505.21
	3385	135.44	5.43106E-001	5.85715E-006	0.00000E+000	5.43002E-001	0.00000E+000	10	...........	1505.21
	3401	136.08	5.75102E-001	6.46152E-006	0.00000E+000	5.75000E-001	0.00000E+000	10	...........	1505.12
	3417	136.72	6.07125E-001	7.39565E-006	0.00000E+000	6.06997E-001	0.00000E+000	10	...........	1505.12
	3433	137.36	6.39131E-001	8.48237E-006	0.00000E+000	6.38995E-001	0.00000E+000	10	...........	1505.12
	3449	138	6.71133E-001	1.01234E-005	0.00000E+000	6.70992E-001	0.00000E+000	10	...........	1505.12
	3465	138.64	7.03134E-001	1.25976E-005	0.00000E+000	7.02990E-001	0.00000E+000	10	...........	1505.12
	3481	139.28	7.35147E-001	1.51992E-005	0.00000E+000	7.34987E-001	0.00000E+000	10	...........	1505.12
	3497	139.92	7.67137E-001	1.73337E-005	0.00000E+000	7.66985E-001	0.00000E+000	10	...........	1505.12
	3513	140.56	7.99151E-001	1.91939E-005	0.00000E+000	7.98982E-001	0.00000E+000	10	...........	1505.12
	3529	141.2	8.31148E-001	2.08672E-005	0.00000E+000	8.30980E-001	0.00000E+000	10	...........	1505.12
	3545	141.84	8.63153E-001	2.28956E-005	0.00000E+000	8.62977E-001	0.00000E+000	10	...........	1505.12
	3561	142.48	8.95158E-001	2.48508E-005	0.00000E+000	8.94975E-001	0.00000E+000	10	...........	1505.12
	3577	143.12	9.27219E-001	2.67646E-005	0.00000E+000	9.27022E-001	0.00000E+000	10	...........	1505.12
	3593	143.76	9.59209E-001	2.84655E-005	0.00000E+000	9.59020E-001	0.00000E+000	10	...........	1505.49
	3609	144.4	9.91217E-001	3.01082E-005	0.00000E+000	9.91017E-001	0.00000E+000	10	...........	1505.49
	3625	145.04	1.02322E+000	3.16888E-005	0.00000E+000	1.02301E+000	0.00000E+000	10	...........	1505.03
	3641	145.68	1.05523E+000	3.30888E-005	0.00000E+000	1.05501E+000	0.00000E+000	10	...........	1505.03
	3657	146.32	1.08723E+000	3.48999E-005	0.00000E+000	1.08701E+000	0.00000E+000	10	...........	1505.12
	3673	146.96	1.11923E+000	3.62557E-005	0.00000E+000	1.11901E+000	0.00000E+000	10	...........	1505.12
	3689	147.6	1.15123E+000	3.79190E-005	0.00000E+000	1.15100E+000	0.00000E+000	10	...........	1505.12
	3705	148.24	1.18325E+000	3.97907E-005	0.00000E+000	1.18300E+000	0.00000E+000	10	...........	1505.12
	3721	148.88	1.21524E+000	4.17388E-005	0.00000E+000	1.21500E+000	0.00000E+000	10	...........	1505.03
	3737	149.52	1.24727E+000	4.39651E-005	0.00000E+000	1.24700E+000	0.00000E+000	10	...........	1505.03
	3753	150.16	1.26727E+000	3.58805E-005	0.00000E+000	1.26700E+000	0.00000E+000	10	...........	1505.12
	3769	150.8	1.23526E+000	1.68232E-005	0.00000E+000	1.23500E+000	0.00000E+000	10	...........	1505.03
	3785	151.44	1.20324E+000	9.47515E-006	0.00000E+000	1.20300E+000	0.00000E+000	10	...........	1505.03
	3801	152.08	1.17124E+000	5.59423E-006	0.00000E+000	1.17100E+000	0.00000E+000	10	...........	1505.21
	3817	152.72	1.13924E+000	3.41440E-006	0.00000E+000	1.13901E+000	0.00000E+000	10	...........	1505.20
	3833	153.36	1.10723E+000	1.78502E-006	0.00000E+000	1.10701E+000	0.00000E+000	10	...........	1505.12
	3849	154	1.07523E+000	6.86761E-007	0.00000E+000	1.07501E+000	0.00000E+000	10	...........	1505.30
	3865	154.64	1.04321E+000	-2.27778E-007	0.00000E+000	1.04301E+000	0.00000E+000	10	...........	1505.30
	3881	155.28	1.01123E+000	-9.95152E-007	0.00000E+000	1.01102E+000	0.00000E+000	10	...........	1505.21
	3897	155.92	9.79224E-001	-1.72250E-006	0.00000E+000	9.79018E-001	0.00000E+000	10	...........	1505.12
	3913	156.56	9.47224E-001	-2.54171E-006	0.00000E+000	9.47021E-001	0.00000E+000	10	...........	1505.12
	3929	157.2	9.15165E-001	-3.42123E-006	0.00000E+000	9.14973E-001	0.00000E+000	10	...........	1505.21
	3945	157.84	8.83150E-001	-4.20764E-006	0.00000E+000	8.82976E-001	0.00000E+000	10	...........	1505.49
	3961	158.48	8.51164E-001	-5.20806E-006	0.00000E+000	8.50978E-001	0.00000E+000	10	...........	1505.49
	3977	159.12	8.19173E-001	-6.54187E-006	0.00000E+000	8.18981E-001	0.00000E+000	10	...........	1505.12
	3993	159.76	7.87147E-001	-8.08051E-006	0.00000E+000	7.86983E-001	0.00000E+000	10	...........	1505.12
	4009	160.4	7.55140E-001	-1.04250E-005	0.00000E+000	7.54986E-001	0.00000E+000	10	...........	1505.12
	4025	161.04	7.23138E-001	-1.30947E-005	0.00000E+000	7.22988E-001	0.00000E+000	10	...........	1505.30
	4041	161.68	6.91120E-001	-1.65469E-005	0.00000E+000	6.90991E-001	0.00000E+000	10	...........	1505.30
	4057	162.32	6.59107E-001	-2.20043E-005	0.00000E+000	6.58993E-001	0.00000E+000	10	...........	1505.12
	4073	162.96	6.27120E-001	-3.02073E-005	0.00000E+000	6.26996E-001	0.00000E+000	10	...........	1505.40
	4089	163.6	5.95126E-001	-3.99891E-005	0.00000E+000	5.94998E-001	0.00000E+000	10	...........	1505.40
	4105	164.24	5.63119E-001	-4.96371E-005	0.00000E+000	5.63001E-001	0.00000E+000	10	...........	1505.21
	4121	164.88	5.31114E-001	-5.42160E-005	0.00000E+000	5.31003E-001	0.00000E+000	10	...........	1505.49
	4137	165.52	4.99104E-001	-4.88462E-005	0.00000E+000	4.99006E-001	0.00000E+000	10	...........	1505.49
	4153	166.16	4.67121E-001	-3.72413E-005	0.00000E+000	4.67008E-001	0.00000E+000	10	...........	1505.12
	4169	166.8	4.35127E-001	-2.63232E-005	0.00000E+000	4.35011E-001	0.00000E+000	10	...........	1505.40
	4185	167.44	4.03082E-001	-1.87755E-005	0.00000E+000	4.03013E-001	0.00000E+000	10	...........	1505.40
	4201	168.08	3.71073E-001	-1.36782E-005	0.00000E+000	3.71016E-001	0.00000E+000	10	...........	1505.12
	4217	168.72	3.39103E-001	-1.01410E-005	0.00000E+000	3.39018E-001	0.00000E+000	10	...........	1505.16
	4233	169.36	3.07114E-001	-7.85038E-006	0.00000E+000	3.07021E-001	0.00000E+000	10	...........	1505.30
	4249	170	2.75084E-001	-6.31382E-006	0.00000E+000	2.75023E-001	0.00000E+000	10	...........	1505.12
	4265	170.64	2.43038E-001	-5.53895E-006	0.00000E+000	2.42976E-001	0.00000E+000	10	...........	1505.12
	4281	171.28	2.11051E-001	-5.35120E-006	0.00000E+000	2.10978E-001	0.00000E+000	10	...........	1505.40
	4297	171.92	1.79040E-001	-5.36843E-006	0.00000E+000	1.78981E-001	0.00000E+000	10	...........	1505.12
	4313	172.56	1.47025E-001	-6.04979E-006	0.00000E+000	1.46983E-001	0.00000E+000	10	...........	1505.12
	4329	173.2	1.15032E-001	-7.85677E-006	0.00000E+000	1.14986E-001	0.00000E+000	10	...........	1505.40
	4345	173.84	8.30244E-002	-1.22199E-005	0.00000E+000	8.29883E-002	0.00000E+000	10	...........	1505.12
	4361	174.48	5.10275E-002	-1.85939E-005	0.00000E+000	5.09908E-002	0.00000E+000	10	...........	1505.12
	4377	175.12	1.90273E-002	-2.94322E-005	0.00000E+000	1.89933E-002	0.00000E+000	10	...........	1505.40
	4393	175.76	-1.29634E-002	-3.98005E-005	0.00000E+000	-1.30042E-002	0.00000E+000	10	...........	1505.12
	4409	176.4	-4.49621E-002	-3.91434E-005	0.00000E+000	-4.50017E-002	0.00000E+000	10	...........	1505.12
	4425	177.04	-7.69724E-002	-4.51671E-005	0.00000E+000	-7.69992E-002	0.00000E+000	10	...........	1505.40
	4441	177.68	-1.08969E-001	-5.62655E-005	0.00000E+000	-1.08997E-001	0.00000E+000	10	...........	1505.40
	4457	178.32	-1.40972E-001	-6.15395E-005	0.00000E+000	-1.40994E-001	0.00000E+000	10	...........	1505.12
	4473	178.96	-1.72974E-001	-7.49408E-005	0.00000E+000	-1.72992E-001	0.00000E+000	10	...........	1505.40
	4489	179.6	-2.04968E-001	-1.54294E-004	0.00000E+000	-2.04989E-001	0.00000E+000	10	...........	1505.40
	4500	180.04	-2.26969E-001	-3.38373E-004	0.00000E+000	-2.26987E-001	0.00000E+000	10	...........	1505.03