File: data/Jesus_data/electroless_Pt_28%_NH4OH/Break_in.DTA
EXPLAIN
TAG	CV
TITLE	LABEL	Cyclic Voltammetry	Test Identifier
DATE	LABEL	7/17/2023	Date
TIME	LABEL	22:03:30	Time
NOTES	NOTES	1	Notes...

PSTAT	PSTAT	IFC1010-20234	Potentiostat
VINIT	POTEN	-2.27E-01	F	Initial E (V)
VLIMIT1	POTEN	1.27E+00	F	Scan Limit 1 (V)
VLIMIT2	POTEN	-2.27E-01	F	Scan Limit 2 (V)
VFINAL	POTEN	-1.27E-01	F	Final E (V)
SCANRATE	QUANT	5.00E+01	Scan Rate (mV/s)
STEPSIZE	QUANT	2.00E+00	Step Size (mV)
CYCLES	IQUANT	30	Cycles (#)
IMODE	SELECTOR	1	I/E Range Mode
IRANGE	QUANT	2.00E+00	Max Current (mA)
AREA	QUANT	1.00E+00	Sample Area (cm^2)
EQDELAY	QUANT	5.00E+00	Equil. Time (s)
IRCOMP	SELECTOR	2	IRComp
PFCOR	QUANT	2.49E+01	PF Corr. (ohm)
SAMPLINGMODE	SELECTOR	2	Sampling Mode
EOC	QUANT	0	Open Circuit (V)
ELECTRODETYPE	SELECTOR	0	Electrode Type
STRIPPING	TOGGLE	F	Used for Stripping
POLARITY	TOGGLE	F	Signal Polarity
SEQUENCER	TOGGLE	TRUE	Run as Sequence
PSTATMODEL	IQUANT	64	Pstat Model
PSTATSECTION	LABEL	IFC1010-20234	Pstat Section
PSTATSERIALNO	LABEL	20234	Pstat Serial Number
CTRLMODE	IQUANT	1	Control Mode
ELECTROMETER	IQUANT	0	RE=0 or CS=1
IESTAB	IQUANT	2	I/E Stability
CASPEED	IQUANT	4	Control Amp Speed
CONVENTION	IQUANT	1	Current Convention
ICHRANGE	IQUANT	2	Ich Range
ICHRANGEMODE	TOGGLE	F	Ich Auto Range
ICHOFFSETENABLE	TOGGLE	F	Ich Offset Enable
ICHOFFSET	QUANT	0	Ich Offset (V)
ICHFILTER	IQUANT	3	Ich Filter
VCHRANGE	IQUANT	2	Vch Range
VCHRANGEMODE	TOGGLE	F	Vch Auto Range
VCHOFFSETENABLE	TOGGLE	F	Vch Offset Enable
VCHOFFSET	QUANT	0	Vch Offset (V)
VCHFILTER	IQUANT	1	Vch Filter
IERANGELOWERLIMIT	IQUANT	4	I/E Range Lower Limit
IERANGEMODE	TOGGLE	F	I/E AutoRange
IERANGE	IQUANT	10	I/E Range
ACHSELECT	IQUANT	0	Ach Select
ACHRANGE	IQUANT	2	Ach Range
ACHOFFSETENABLE	TOGGLE	F	Ach Offset Enable
ACHOFFSET	QUANT	0	Ach Offset (V)
ACHFILTER	IQUANT	1	Ach Filter
SENSECABLEID	IQUANT	14	Sense Cable ID
PWRCABLEID	IQUANT	14	Power Cable ID
DCCALDATE	LABEL	7/15/2022	DC Calibration Date
ACCALDATE	LABEL	07-08-20	AC Calibration Date
FRAMEWORKVERSION	LABEL	7.8.2	Framework Version
INSTRUMENTVERSION	LABEL	4.4	Instrument Version
CURVE1	TABLE
	Pt	T	Vf	Im		Vu	Sig	Ach	IERange	Over	Temp
	#	s	V vs. Ref.	A		V	V	V	#	bits	deg C
	0	0.04	-2.27E-01	-2.07E-04	-2.07E-01	0.00E+00	-2.27E-01	0.00E+00	10	...........	1505.86
	14	0.6	-1.99E-01	3.67E-04	3.67E-01	0.00E+00	-1.99E-01	0.00E+00	10	...........	1505.86
	28	1.16	-1.71E-01	6.24E-04	6.24E-01	0.00E+00	-1.71E-01	0.00E+00	10	...........	1505.86
	42	1.72	-1.43E-01	8.88E-04	8.88E-01	0.00E+00	-1.43E-01	0.00E+00	10	...........	1505.3
	56	2.28	-1.15E-01	2.30E-04	2.30E-01	0.00E+00	-1.15E-01	0.00E+00	10	...........	1505.3
	70	2.84	-8.70E-02	1.86E-04	1.86E-01	0.00E+00	-8.70E-02	0.00E+00	10	...........	1505.21
	84	3.4	-5.90E-02	1.60E-04	1.60E-01	0.00E+00	-5.90E-02	0.00E+00	10	...........	1505.21
	98	3.96	-3.10E-02	1.40E-04	1.40E-01	0.00E+00	-3.10E-02	0.00E+00	10	...........	1505.58
	112	4.52	-2.98E-03	1.35E-04	1.35E-01	0.00E+00	-3.01E-03	0.00E+00	10	...........	1505.58
	126	5.08	2.50E-02	1.25E-04	1.25E-01	0.00E+00	2.50E-02	0.00E+00	10	...........	1505.12
	140	5.64	5.30E-02	1.09E-04	1.09E-01	0.00E+00	5.30E-02	0.00E+00	10	...........	1505.14
	154	6.2	8.10E-02	7.32E-05	7.32E-02	0.00E+00	8.10E-02	0.00E+00	10	...........	1505.3
	168	6.76	1.09E-01	5.20E-05	5.20E-02	0.00E+00	1.09E-01	0.00E+00	10	...........	1505.3
	182	7.32	1.37E-01	3.86E-05	3.86E-02	0.00E+00	1.37E-01	0.00E+00	10	...........	1505.3
	196	7.88	1.65E-01	2.92E-05	2.92E-02	0.00E+00	1.65E-01	0.00E+00	10	...........	1505.21
	210	8.44	1.93E-01	2.35E-05	2.35E-02	0.00E+00	1.93E-01	0.00E+00	10	...........	1505.21
	224	9	2.21E-01	2.02E-05	2.02E-02	0.00E+00	2.21E-01	0.00E+00	10	...........	1505.4
	238	9.56	2.49E-01	1.84E-05	1.84E-02	0.00E+00	2.49E-01	0.00E+00	10	...........	1505.4
	252	10.12	2.77E-01	1.74E-05	1.74E-02	0.00E+00	2.77E-01	0.00E+00	10	...........	1505.21
	266	10.68	3.05E-01	1.63E-05	1.63E-02	0.00E+00	3.05E-01	0.00E+00	10	...........	1505.12
	280	11.24	3.33E-01	1.57E-05	1.57E-02	0.00E+00	3.33E-01	0.00E+00	10	...........	1505.12
	294	11.8	3.61E-01	1.49E-05	1.49E-02	0.00E+00	3.61E-01	0.00E+00	10	...........	1505.12
	308	12.36	3.89E-01	1.44E-05	1.44E-02	0.00E+00	3.89E-01	0.00E+00	10	...........	1505.12
	322	12.92	4.17E-01	1.43E-05	1.43E-02	0.00E+00	4.17E-01	0.00E+00	10	...........	1505.12
	336	13.48	4.45E-01	1.41E-05	1.41E-02	0.00E+00	4.45E-01	0.00E+00	10	...........	1505.12
	350	14.04	4.73E-01	1.44E-05	1.44E-02	0.00E+00	4.73E-01	0.00E+00	10	...........	1505.21
	364	14.6	5.01E-01	1.50E-05	1.50E-02	0.00E+00	5.01E-01	0.00E+00	10	...........	1505.21
	378	15.16	5.29E-01	1.64E-05	1.64E-02	0.00E+00	5.29E-01	0.00E+00	10	...........	1505.4
	392	15.72	5.57E-01	1.82E-05	1.82E-02	0.00E+00	5.57E-01	0.00E+00	10	...........	1505.21
	406	16.28	5.85E-01	2.07E-05	2.07E-02	0.00E+00	5.85E-01	0.00E+00	10	...........	1505.21
	420	16.84	6.13E-01	2.41E-05	2.41E-02	0.00E+00	6.13E-01	0.00E+00	10	...........	1505.49
	434	17.4	6.41E-01	2.94E-05	2.94E-02	0.00E+00	6.41E-01	0.00E+00	10	...........	1505.49
	448	17.96	6.69E-01	3.75E-05	3.75E-02	0.00E+00	6.69E-01	0.00E+00	10	...........	1505.21
	462	18.52	6.97E-01	4.70E-05	4.70E-02	0.00E+00	6.97E-01	0.00E+00	10	...........	1505.21
	476	19.08	7.25E-01	5.62E-05	5.62E-02	0.00E+00	7.25E-01	0.00E+00	10	...........	1505.49
	490	19.64	7.53E-01	6.43E-05	6.43E-02	0.00E+00	7.53E-01	0.00E+00	10	...........	1505.43
	504	20.2	7.81E-01	7.12E-05	7.12E-02	0.00E+00	7.81E-01	0.00E+00	10	...........	1505.21
	518	20.76	8.09E-01	7.77E-05	7.77E-02	0.00E+00	8.09E-01	0.00E+00	10	...........	1505.4
	532	21.32	8.37E-01	8.31E-05	8.31E-02	0.00E+00	8.37E-01	0.00E+00	10	...........	1505.4
	546	21.88	8.65E-01	8.76E-05	8.76E-02	0.00E+00	8.65E-01	0.00E+00	10	...........	1505.21
	560	22.44	8.93E-01	9.03E-05	9.03E-02	0.00E+00	8.93E-01	0.00E+00	10	...........	1505.21
	574	23	9.21E-01	9.25E-05	9.25E-02	0.00E+00	9.21E-01	0.00E+00	10	...........	1505.49
	588	23.56	9.49E-01	9.40E-05	9.40E-02	0.00E+00	9.49E-01	0.00E+00	10	...........	1505.49
	602	24.12	9.77E-01	9.54E-05	9.54E-02	0.00E+00	9.77E-01	0.00E+00	10	...........	1505.21
	616	24.68	1.01E+00	9.74E-05	9.74E-02	0.00E+00	1.01E+00	0.00E+00	10	...........	1505.49
	630	25.24	1.03E+00	9.98E-05	9.98E-02	0.00E+00	1.03E+00	0.00E+00	10	...........	1505.49
	644	25.8	1.06E+00	1.02E-04	1.02E-01	0.00E+00	1.06E+00	0.00E+00	10	...........	1505.21
	658	26.36	1.09E+00	1.05E-04	1.05E-01	0.00E+00	1.09E+00	0.00E+00	10	...........	1505.21
	672	26.92	1.12E+00	1.08E-04	1.08E-01	0.00E+00	1.12E+00	0.00E+00	10	...........	1505.4
	686	27.48	1.15E+00	1.11E-04	1.11E-01	0.00E+00	1.15E+00	0.00E+00	10	...........	1505.4
	700	28.04	1.17E+00	1.15E-04	1.15E-01	0.00E+00	1.17E+00	0.00E+00	10	...........	1505.21
	714	28.6	1.20E+00	1.19E-04	1.19E-01	0.00E+00	1.20E+00	0.00E+00	10	...........	1505.21
	728	29.16	1.23E+00	1.24E-04	1.24E-01	0.00E+00	1.23E+00	0.00E+00	10	...........	1505.49
	742	29.72	1.26E+00	1.31E-04	1.31E-01	0.00E+00	1.26E+00	0.00E+00	10	...........	1505.21
	756	30.28	1.26E+00	8.47E-05	8.47E-02	0.00E+00	1.26E+00	0.00E+00	10	...........	1505.21
	770	30.84	1.23E+00	4.25E-05	4.25E-02	0.00E+00	1.23E+00	0.00E+00	10	...........	1505.49
	784	31.4	1.21E+00	2.46E-05	2.46E-02	0.00E+00	1.21E+00	0.00E+00	10	...........	1505.49
	798	31.96	1.18E+00	1.49E-05	1.49E-02	0.00E+00	1.18E+00	0.00E+00	10	...........	1505.12
	812	32.52	1.15E+00	8.90E-06	8.90E-03	0.00E+00	1.15E+00	0.00E+00	10	...........	1505.12
	826	33.08	1.12E+00	4.79E-06	4.79E-03	0.00E+00	1.12E+00	0.00E+00	10	...........	1505.58
	840	33.64	1.09E+00	1.84E-06	1.84E-03	0.00E+00	1.09E+00	0.00E+00	10	...........	1505.42
	854	34.2	1.07E+00	-6.71E-07	-6.71E-04	0.00E+00	1.07E+00	0.00E+00	10	...........	1505.12
	868	34.76	1.04E+00	-2.72E-06	-2.72E-03	0.00E+00	1.04E+00	0.00E+00	10	...........	1505.21
	882	35.32	1.01E+00	-4.40E-06	-4.40E-03	0.00E+00	1.01E+00	0.00E+00	10	...........	1505.21
	896	35.88	9.81E-01	-6.42E-06	-6.42E-03	0.00E+00	9.81E-01	0.00E+00	10	...........	1505.12
	910	36.44	9.53E-01	-8.14E-06	-8.14E-03	0.00E+00	9.53E-01	0.00E+00	10	...........	1505.12
	924	37	9.25E-01	-9.91E-06	-9.91E-03	0.00E+00	9.25E-01	0.00E+00	10	...........	1505.3
	938	37.56	8.97E-01	-1.23E-05	-1.23E-02	0.00E+00	8.97E-01	0.00E+00	10	...........	1505.3
	952	38.12	8.69E-01	-1.46E-05	-1.46E-02	0.00E+00	8.69E-01	0.00E+00	10	...........	1505.12
	966	38.68	8.41E-01	-1.78E-05	-1.78E-02	0.00E+00	8.41E-01	0.00E+00	10	...........	1505.4
	980	39.24	8.13E-01	-2.14E-05	-2.14E-02	0.00E+00	8.13E-01	0.00E+00	10	...........	1505.4
	994	39.8	7.85E-01	-2.59E-05	-2.59E-02	0.00E+00	7.85E-01	0.00E+00	10	...........	1505.12
	1008	40.36	7.57E-01	-3.18E-05	-3.18E-02	0.00E+00	7.57E-01	0.00E+00	10	...........	1505.12
	1022	40.92	7.29E-01	-3.90E-05	-3.90E-02	0.00E+00	7.29E-01	0.00E+00	10	...........	1505.12
	1036	41.48	7.01E-01	-4.91E-05	-4.91E-02	0.00E+00	7.01E-01	0.00E+00	10	...........	1505.12
	1050	42.04	6.73E-01	-6.22E-05	-6.22E-02	0.00E+00	6.73E-01	0.00E+00	10	...........	1505.12
	1064	42.6	6.45E-01	-7.93E-05	-7.93E-02	0.00E+00	6.45E-01	0.00E+00	10	...........	1505.12
	1078	43.16	6.17E-01	-1.02E-04	-1.02E-01	0.00E+00	6.17E-01	0.00E+00	10	...........	1505.12
	1092	43.72	5.89E-01	-1.30E-04	-1.30E-01	0.00E+00	5.89E-01	0.00E+00	10	...........	1505.58
	1106	44.28	5.61E-01	-1.58E-04	-1.58E-01	0.00E+00	5.61E-01	0.00E+00	10	...........	1505.58
	1120	44.84	5.33E-01	-1.72E-04	-1.72E-01	0.00E+00	5.33E-01	0.00E+00	10	...........	1505.12
	1134	45.4	5.05E-01	-1.63E-04	-1.63E-01	0.00E+00	5.05E-01	0.00E+00	10	...........	1505.12
	1148	45.96	4.77E-01	-1.34E-04	-1.34E-01	0.00E+00	4.77E-01	0.00E+00	10	...........	1505.58
	1162	46.52	4.49E-01	-1.01E-04	-1.01E-01	0.00E+00	4.49E-01	0.00E+00	10	...........	1505.58
	1176	47.08	4.21E-01	-7.36E-05	-7.36E-02	0.00E+00	4.21E-01	0.00E+00	10	...........	1505.12
	1190	47.64	3.93E-01	-5.50E-05	-5.50E-02	0.00E+00	3.93E-01	0.00E+00	10	...........	1505.12
	1204	48.2	3.65E-01	-4.21E-05	-4.21E-02	0.00E+00	3.65E-01	0.00E+00	10	...........	1505.12
	1218	48.76	3.37E-01	-3.33E-05	-3.33E-02	0.00E+00	3.37E-01	0.00E+00	10	...........	1505.21
	1232	49.32	3.09E-01	-2.76E-05	-2.76E-02	0.00E+00	3.09E-01	0.00E+00	10	...........	1505.21
	1246	49.88	2.81E-01	-2.37E-05	-2.37E-02	0.00E+00	2.81E-01	0.00E+00	10	...........	1505.58
	1260	50.44	2.53E-01	-2.16E-05	-2.16E-02	0.00E+00	2.53E-01	0.00E+00	10	...........	1505.58
	1274	51	2.25E-01	-2.05E-05	-2.05E-02	0.00E+00	2.25E-01	0.00E+00	10	...........	1505.12
	1288	51.56	1.97E-01	-2.04E-05	-2.04E-02	0.00E+00	1.97E-01	0.00E+00	10	...........	1505.12
	1302	52.12	1.69E-01	-2.15E-05	-2.15E-02	0.00E+00	1.69E-01	0.00E+00	10	...........	1505.58
	1316	52.68	1.41E-01	-2.42E-05	-2.42E-02	0.00E+00	1.41E-01	0.00E+00	10	...........	1505.12
	1330	53.24	1.13E-01	-2.95E-05	-2.95E-02	0.00E+00	1.13E-01	0.00E+00	10	...........	1505.12
	1344	53.8	8.50E-02	-3.92E-05	-3.92E-02	0.00E+00	8.50E-02	0.00E+00	10	...........	1505.58
	1358	54.36	5.70E-02	-5.60E-05	-5.60E-02	0.00E+00	5.70E-02	0.00E+00	10	...........	1505.58
	1372	54.92	2.90E-02	-7.73E-05	-7.73E-02	0.00E+00	2.90E-02	0.00E+00	10	...........	1505.12
	1386	55.48	1.02E-03	-9.13E-05	-9.13E-02	0.00E+00	9.95E-04	0.00E+00	10	...........	1505.12
	1400	56.04	-2.70E-02	-1.01E-04	-1.01E-01	0.00E+00	-2.70E-02	0.00E+00	10	...........	1505.4
	1414	56.6	-5.50E-02	-1.17E-04	-1.17E-01	0.00E+00	-5.50E-02	0.00E+00	10	...........	1505.4
	1428	57.16	-8.30E-02	-1.48E-04	-1.48E-01	0.00E+00	-8.30E-02	0.00E+00	10	...........	1505.21
	1442	57.72	-1.11E-01	-1.91E-04	-1.91E-01	0.00E+00	-1.11E-01	0.00E+00	10	...........	1505.49
	1456	58.28	-1.39E-01	-2.12E-04	-2.12E-01	0.00E+00	-1.39E-01	0.00E+00	10	...........	1505.49
	1470	58.84	-1.67E-01	-2.74E-04	-2.74E-01	0.00E+00	-1.67E-01	0.00E+00	10	...........	1505.12
	1484	59.4	-1.95E-01	-6.31E-04	-6.31E-01	0.00E+00	-1.95E-01	0.00E+00	10	...........	1505.12
	1498	59.96	-2.23E-01	-9.73E-04	-9.73E-01	0.00E+00	-2.23E-01	0.00E+00	10	...........	1505.58
	1500	60.04	-2.27E-01	-9.40E-04	-9.40E-01	0.00E+00	-2.27E-01	0.00E+00	10	...........	1505.58
CURVE2	TABLE				0.00E+00
	Pt	T	Vf	Im	#VALUE!	Vu	Sig	Ach	IERange	Over	Temp
	#	s	V vs. Ref.	A	#VALUE!	V	V	V	#	bits	deg C
	1501	60.08	-2.25E-01	-7.71E-04	-7.71E-01	0.00E+00	-2.25E-01	0.00E+00	10	...........	1505.58
	1515	60.64	-1.97E-01	1.97E-04	1.97E-01	0.00E+00	-1.97E-01	0.00E+00	10	...........	1505.37
	1529	61.2	-1.69E-01	5.82E-04	5.82E-01	0.00E+00	-1.69E-01	0.00E+00	10	...........	1505.21
	1543	61.76	-1.41E-01	7.09E-04	7.09E-01	0.00E+00	-1.41E-01	0.00E+00	10	...........	1505.58
	1557	62.32	-1.13E-01	1.74E-04	1.74E-01	0.00E+00	-1.13E-01	0.00E+00	10	...........	1505.58
	1571	62.88	-8.50E-02	1.58E-04	1.58E-01	0.00E+00	-8.50E-02	0.00E+00	10	...........	1505.3
	1585	63.44	-5.70E-02	1.28E-04	1.28E-01	0.00E+00	-5.70E-02	0.00E+00	10	...........	1505.3
	1599	64	-2.90E-02	1.17E-04	1.17E-01	0.00E+00	-2.90E-02	0.00E+00	10	...........	1505.21
	1613	64.56	-1.00E-03	1.15E-04	1.15E-01	0.00E+00	-1.01E-03	0.00E+00	10	...........	1505.21
	1627	65.12	2.70E-02	1.11E-04	1.11E-01	0.00E+00	2.70E-02	0.00E+00	10	...........	1505.12
	1641	65.68	5.50E-02	1.00E-04	1.00E-01	0.00E+00	5.50E-02	0.00E+00	10	...........	1505.3
	1655	66.24	8.30E-02	5.95E-05	5.95E-02	0.00E+00	8.30E-02	0.00E+00	10	...........	1505.3
	1669	66.8	1.11E-01	3.93E-05	3.93E-02	0.00E+00	1.11E-01	0.00E+00	10	...........	1505.12
	1683	67.36	1.39E-01	2.72E-05	2.72E-02	0.00E+00	1.39E-01	0.00E+00	10	...........	1505.12
	1697	67.92	1.67E-01	1.85E-05	1.85E-02	0.00E+00	1.67E-01	0.00E+00	10	...........	1505.4
	1711	68.48	1.95E-01	1.40E-05	1.40E-02	0.00E+00	1.95E-01	0.00E+00	10	...........	1505.4
	1725	69.04	2.23E-01	1.20E-05	1.20E-02	0.00E+00	2.23E-01	0.00E+00	10	...........	1505.12
	1739	69.6	2.51E-01	1.12E-05	1.12E-02	0.00E+00	2.51E-01	0.00E+00	10	...........	1505.12
	1753	70.16	2.79E-01	1.07E-05	1.07E-02	0.00E+00	2.79E-01	0.00E+00	10	...........	1505.12
	1767	70.72	3.07E-01	1.05E-05	1.05E-02	0.00E+00	3.07E-01	0.00E+00	10	...........	1505.12
	1781	71.28	3.35E-01	1.01E-05	1.01E-02	0.00E+00	3.35E-01	0.00E+00	10	...........	1505.12
	1795	71.84	3.63E-01	9.94E-06	9.94E-03	0.00E+00	3.63E-01	0.00E+00	10	...........	1505.12
	1809	72.4	3.91E-01	9.67E-06	9.67E-03	0.00E+00	3.91E-01	0.00E+00	10	...........	1505.12
	1823	72.96	4.19E-01	9.54E-06	9.54E-03	0.00E+00	4.19E-01	0.00E+00	10	...........	1505.12
	1837	73.52	4.47E-01	9.71E-06	9.71E-03	0.00E+00	4.47E-01	0.00E+00	10	...........	1505.12
	1851	74.08	4.75E-01	1.01E-05	1.01E-02	0.00E+00	4.75E-01	0.00E+00	10	...........	1505.12
	1865	74.64	5.03E-01	1.09E-05	1.09E-02	0.00E+00	5.03E-01	0.00E+00	10	...........	1505.12
	1879	75.2	5.31E-01	1.24E-05	1.24E-02	0.00E+00	5.31E-01	0.00E+00	10	...........	1505.12
	1893	75.76	5.59E-01	1.43E-05	1.43E-02	0.00E+00	5.59E-01	0.00E+00	10	...........	1505.12
	1907	76.32	5.87E-01	1.71E-05	1.71E-02	0.00E+00	5.87E-01	0.00E+00	10	...........	1505.12
	1921	76.88	6.15E-01	2.19E-05	2.19E-02	0.00E+00	6.15E-01	0.00E+00	10	...........	1505.12
	1935	77.44	6.43E-01	2.99E-05	2.99E-02	0.00E+00	6.43E-01	0.00E+00	10	...........	1505.12
	1949	78	6.71E-01	4.11E-05	4.11E-02	0.00E+00	6.71E-01	0.00E+00	10	...........	1505.12
	1963	78.56	6.99E-01	5.23E-05	5.23E-02	0.00E+00	6.99E-01	0.00E+00	10	...........	1505.12
	1977	79.12	7.27E-01	6.20E-05	6.20E-02	0.00E+00	7.27E-01	0.00E+00	10	...........	1505.58
	1991	79.68	7.55E-01	6.94E-05	6.94E-02	0.00E+00	7.55E-01	0.00E+00	10	...........	1505.12
	2005	80.24	7.83E-01	7.54E-05	7.54E-02	0.00E+00	7.83E-01	0.00E+00	10	...........	1505.12
	2019	80.8	8.11E-01	8.09E-05	8.09E-02	0.00E+00	8.11E-01	0.00E+00	10	...........	1505.58
	2033	81.36	8.39E-01	8.50E-05	8.50E-02	0.00E+00	8.39E-01	0.00E+00	10	...........	1505.58
	2047	81.92	8.67E-01	8.88E-05	8.88E-02	0.00E+00	8.67E-01	0.00E+00	10	...........	1505.12
	2061	82.48	8.95E-01	8.99E-05	8.99E-02	0.00E+00	8.95E-01	0.00E+00	10	...........	1505.12
	2075	83.04	9.23E-01	9.04E-05	9.04E-02	0.00E+00	9.23E-01	0.00E+00	10	...........	1505.12
	2089	83.6	9.51E-01	9.12E-05	9.12E-02	0.00E+00	9.51E-01	0.00E+00	10	...........	1505.12
	2103	84.16	9.79E-01	9.21E-05	9.21E-02	0.00E+00	9.79E-01	0.00E+00	10	...........	1505.12
	2117	84.72	1.01E+00	9.36E-05	9.36E-02	0.00E+00	1.01E+00	0.00E+00	10	...........	1505.4
	2131	85.28	1.04E+00	9.58E-05	9.58E-02	0.00E+00	1.04E+00	0.00E+00	10	...........	1505.4
	2145	85.84	1.06E+00	9.80E-05	9.80E-02	0.00E+00	1.06E+00	0.00E+00	10	...........	1505.12
	2159	86.4	1.09E+00	1.01E-04	1.01E-01	0.00E+00	1.09E+00	0.00E+00	10	...........	1505.12
	2173	86.96	1.12E+00	1.04E-04	1.04E-01	0.00E+00	1.12E+00	0.00E+00	10	...........	1505.49
	2187	87.52	1.15E+00	1.07E-04	1.07E-01	0.00E+00	1.15E+00	0.00E+00	10	...........	1505.49
	2201	88.08	1.18E+00	1.11E-04	1.11E-01	0.00E+00	1.18E+00	0.00E+00	10	...........	1505.21
	2215	88.64	1.20E+00	1.15E-04	1.15E-01	0.00E+00	1.20E+00	0.00E+00	10	...........	1505.51
	2229	89.2	1.23E+00	1.21E-04	1.21E-01	0.00E+00	1.23E+00	0.00E+00	10	...........	1505.58
	2243	89.76	1.26E+00	1.28E-04	1.28E-01	0.00E+00	1.26E+00	0.00E+00	10	...........	1505.21
	2257	90.32	1.26E+00	7.71E-05	7.71E-02	0.00E+00	1.26E+00	0.00E+00	10	...........	1505.21
	2271	90.88	1.23E+00	3.93E-05	3.93E-02	0.00E+00	1.23E+00	0.00E+00	10	...........	1505.58
	2285	91.44	1.20E+00	2.26E-05	2.26E-02	0.00E+00	1.20E+00	0.00E+00	10	...........	1505.58
	2299	92	1.18E+00	1.36E-05	1.36E-02	0.00E+00	1.18E+00	0.00E+00	10	...........	1505.3
	2313	92.56	1.15E+00	7.77E-06	7.77E-03	0.00E+00	1.15E+00	0.00E+00	10	...........	1505.3
	2327	93.12	1.12E+00	3.80E-06	3.80E-03	0.00E+00	1.12E+00	0.00E+00	10	...........	1505.21
[...]
	44467	1778.72	8.39E-01	-2.23E-05	-2.23E-02	0.00E+00	8.39E-01	0.00E+00	10	...........	1505.12
	44481	1779.28	8.11E-01	-2.69E-05	-2.69E-02	0.00E+00	8.11E-01	0.00E+00	10	...........	1505.12
	44495	1779.84	7.83E-01	-3.25E-05	-3.25E-02	0.00E+00	7.83E-01	0.00E+00	10	...........	1505.12
	44509	1780.4	7.55E-01	-4.01E-05	-4.01E-02	0.00E+00	7.55E-01	0.00E+00	10	...........	1505.12
	44523	1780.96	7.27E-01	-5.01E-05	-5.01E-02	0.00E+00	7.27E-01	0.00E+00	10	...........	1505.12
	44537	1781.52	6.99E-01	-6.39E-05	-6.39E-02	0.00E+00	6.99E-01	0.00E+00	10	...........	1505.58
	44551	1782.08	6.71E-01	-8.36E-05	-8.36E-02	0.00E+00	6.71E-01	0.00E+00	10	...........	1505.12
	44565	1782.64	6.43E-01	-1.12E-04	-1.12E-01	0.00E+00	6.43E-01	0.00E+00	10	...........	1505.12
	44579	1783.2	6.15E-01	-1.50E-04	-1.50E-01	0.00E+00	6.15E-01	0.00E+00	10	...........	1505.58
	44593	1783.76	5.87E-01	-1.96E-04	-1.96E-01	0.00E+00	5.87E-01	0.00E+00	10	...........	1505.58
	44607	1784.32	5.59E-01	-2.34E-04	-2.34E-01	0.00E+00	5.59E-01	0.00E+00	10	...........	1505.12
	44621	1784.88	5.31E-01	-2.38E-04	-2.38E-01	0.00E+00	5.31E-01	0.00E+00	10	...........	1505.12
	44635	1785.44	5.03E-01	-1.98E-04	-1.98E-01	0.00E+00	5.03E-01	0.00E+00	10	...........	1505.12
	44649	1786	4.75E-01	-1.40E-04	-1.40E-01	0.00E+00	4.75E-01	0.00E+00	10	...........	1505.12
	44663	1786.56	4.47E-01	-9.36E-05	-9.36E-02	0.00E+00	4.47E-01	0.00E+00	10	...........	1505.12
	44677	1787.12	4.19E-01	-6.40E-05	-6.40E-02	0.00E+00	4.19E-01	0.00E+00	10	...........	1505.58
	44691	1787.68	3.91E-01	-4.58E-05	-4.58E-02	0.00E+00	3.91E-01	0.00E+00	10	...........	1505.58
	44705	1788.24	3.63E-01	-3.47E-05	-3.47E-02	0.00E+00	3.63E-01	0.00E+00	10	...........	1505.12
	44719	1788.8	3.35E-01	-2.75E-05	-2.75E-02	0.00E+00	3.35E-01	0.00E+00	10	...........	1505.12
	44733	1789.36	3.07E-01	-2.26E-05	-2.26E-02	0.00E+00	3.07E-01	0.00E+00	10	...........	1505.58
	44747	1789.92	2.79E-01	-1.97E-05	-1.97E-02	0.00E+00	2.79E-01	0.00E+00	10	...........	1505.58
	44761	1790.48	2.51E-01	-1.78E-05	-1.78E-02	0.00E+00	2.51E-01	0.00E+00	10	...........	1505.12
	44775	1791.04	2.23E-01	-1.67E-05	-1.67E-02	0.00E+00	2.23E-01	0.00E+00	10	...........	1505.38
	44789	1791.6	1.95E-01	-1.67E-05	-1.67E-02	0.00E+00	1.95E-01	0.00E+00	10	...........	1505.58
	44803	1792.16	1.67E-01	-1.80E-05	-1.80E-02	0.00E+00	1.67E-01	0.00E+00	10	...........	1505.12
	44817	1792.72	1.39E-01	-2.27E-05	-2.27E-02	0.00E+00	1.39E-01	0.00E+00	10	...........	1505.12
	44831	1793.28	1.11E-01	-3.11E-05	-3.11E-02	0.00E+00	1.11E-01	0.00E+00	10	...........	1505.58
	44845	1793.84	8.30E-02	-4.27E-05	-4.27E-02	0.00E+00	8.30E-02	0.00E+00	10	...........	1505.58
	44859	1794.4	5.50E-02	-7.01E-05	-7.01E-02	0.00E+00	5.50E-02	0.00E+00	10	...........	1505.12
	44873	1794.96	2.70E-02	-9.70E-05	-9.70E-02	0.00E+00	2.70E-02	0.00E+00	10	...........	1505.12
	44887	1795.52	-9.84E-04	-1.00E-04	-1.00E-01	0.00E+00	-1.01E-03	0.00E+00	10	...........	1505.4
	44901	1796.08	-2.90E-02	-9.78E-05	-9.78E-02	0.00E+00	-2.90E-02	0.00E+00	10	...........	1505.12
	44915	1796.64	-5.70E-02	-1.10E-04	-1.10E-01	0.00E+00	-5.70E-02	0.00E+00	10	...........	1505.12
	44929	1797.2	-8.50E-02	-1.62E-04	-1.62E-01	0.00E+00	-8.50E-02	0.00E+00	10	...........	1505.49
	44943	1797.76	-1.13E-01	-2.14E-04	-2.14E-01	0.00E+00	-1.13E-01	0.00E+00	10	...........	1505.49
	44957	1798.32	-1.41E-01	-1.92E-04	-1.92E-01	0.00E+00	-1.41E-01	0.00E+00	10	...........	1505.12
	44971	1798.88	-1.69E-01	-2.78E-04	-2.78E-01	0.00E+00	-1.69E-01	0.00E+00	10	...........	1505.12
	44985	1799.44	-1.97E-01	-7.15E-04	-7.15E-01	0.00E+00	-1.97E-01	0.00E+00	10	...........	1505.58
	44999	1800	-2.25E-01	-8.32E-04	-8.32E-01	0.00E+00	-2.25E-01	0.00E+00	10	...........	1505.58
	45000	1800.04	-2.27E-01	-8.13E-04	-8.13E-01	0.00E+00	-2.27E-01	0.00E+00	10	...........	1505.28
CURVE31	TABLE				0.00E+00
	Pt	T	Vf	Im	#VALUE!	Vu	Sig	Ach	IERange	Over	Temp
	#	s	V vs. Ref.	A	#VALUE!	V	V	V	#	bits	deg C
	45001	1800.08	-2.25E-01	-6.52E-04	-6.52E-01	0.00E+00	-2.25E-01	0.00E+00	10	...........	1505.12
	45002	1800.12	-2.23E-01	-5.21E-04	-5.21E-01	0.00E+00	-2.23E-01	0.00E+00	10	...........	1505.12
	45003	1800.16	-2.21E-01	-4.12E-04	-4.12E-01	0.00E+00	-2.21E-01	0.00E+00	10	...........	1505.12
	45004	1800.2	-2.19E-01	-3.20E-04	-3.20E-01	0.00E+00	-2.19E-01	0.00E+00	10	...........	1505.12
	45005	1800.24	-2.17E-01	-2.41E-04	-2.41E-01	0.00E+00	-2.17E-01	0.00E+00	10	...........	1505.12
	45006	1800.28	-2.15E-01	-1.71E-04	-1.71E-01	0.00E+00	-2.15E-01	0.00E+00	10	...........	1505.12
	45007	1800.32	-2.13E-01	-1.10E-04	-1.10E-01	0.00E+00	-2.13E-01	0.00E+00	10	...........	1505.12
	45008	1800.36	-2.11E-01	-5.43E-05	-5.43E-02	0.00E+00	-2.11E-01	0.00E+00	10	...........	1505.12
	45009	1800.4	-2.09E-01	-4.05E-06	-4.05E-03	0.00E+00	-2.09E-01	0.00E+00	10	...........	1505.12
	45010	1800.44	-2.07E-01	4.04E-05	4.04E-02	0.00E+00	-2.07E-01	0.00E+00	10	...........	1505.12
	45011	1800.48	-2.05E-01	8.20E-05	8.20E-02	0.00E+00	-2.05E-01	0.00E+00	10	...........	1505.12
	45012	1800.52	-2.03E-01	1.19E-04	1.19E-01	0.00E+00	-2.03E-01	0.00E+00	10	...........	1505.12
	45013	1800.56	-2.01E-01	1.53E-04	1.53E-01	0.00E+00	-2.01E-01	0.00E+00	10	...........	1505.12
	45014	1800.6	-1.99E-01	1.86E-04	1.86E-01	0.00E+00	-1.99E-01	0.00E+00	10	...........	1505.12
	45015	1800.64	-1.97E-01	2.15E-04	2.15E-01	0.00E+00	-1.97E-01	0.00E+00	10	...........	1505.12
	45016	1800.68	-1.95E-01	2.43E-04	2.43E-01	0.00E+00	-1.95E-01	0.00E+00	10	...........	1505.12
	45017	1800.72	-1.93E-01	2.70E-04	2.70E-01	0.00E+00	-1.93E-01	0.00E+00	10	...........	1505.12
	45018	1800.76	-1.91E-01	2.95E-04	2.95E-01	0.00E+00	-1.91E-01	0.00E+00	10	...........	1505.12
	45019	1800.8	-1.89E-01	3.21E-04	3.21E-01	0.00E+00	-1.89E-01	0.00E+00	10	...........	1505.12
	45020	1800.84	-1.87E-01	3.45E-04	3.45E-01	0.00E+00	-1.87E-01	0.00E+00	10	...........	1505.12
	45021	1800.88	-1.85E-01	3.69E-04	3.69E-01	0.00E+00	-1.85E-01	0.00E+00	10	...........	1505.12
	45022	1800.92	-1.83E-01	3.94E-04	3.94E-01	0.00E+00	-1.83E-01	0.00E+00	10	...........	1505.12
	45023	1800.96	-1.81E-01	4.18E-04	4.18E-01	0.00E+00	-1.81E-01	0.00E+00	10	...........	1505.12
	45024	1801	-1.79E-01	4.43E-04	4.43E-01	0.00E+00	-1.79E-01	0.00E+00	10	...........	1505.12
	45025	1801.04	-1.77E-01	4.68E-04	4.68E-01	0.00E+00	-1.77E-01	0.00E+00	10	...........	1505.18
	45026	1801.08	-1.75E-01	4.94E-04	4.94E-01	0.00E+00	-1.75E-01	0.00E+00	10	...........	1505.21
	45027	1801.12	-1.73E-01	5.21E-04	5.21E-01	0.00E+00	-1.73E-01	0.00E+00	10	...........	1505.21
	45028	1801.16	-1.71E-01	5.48E-04	5.48E-01	0.00E+00	-1.71E-01	0.00E+00	10	...........	1505.21
	45029	1801.2	-1.69E-01	5.76E-04	5.76E-01	0.00E+00	-1.69E-01	0.00E+00	10	...........	1505.21
	45030	1801.24	-1.67E-01	6.05E-04	6.05E-01	0.00E+00	-1.67E-01	0.00E+00	10	...........	1505.21
	45031	1801.28	-1.65E-01	6.33E-04	6.33E-01	0.00E+00	-1.65E-01	0.00E+00	10	...........	1505.21
	45032	1801.32	-1.63E-01	6.62E-04	6.62E-01	0.00E+00	-1.63E-01	0.00E+00	10	...........	1505.21
	45033	1801.36	-1.61E-01	6.90E-04	6.90E-01	0.00E+00	-1.61E-01	0.00E+00	10	...........	1505.21
	45034	1801.4	-1.59E-01	7.16E-04	7.16E-01	0.00E+00	-1.59E-01	0.00E+00	10	...........	1505.21
	45035	1801.44	-1.57E-01	7.42E-04	7.42E-01	0.00E+00	-1.57E-01	0.00E+00	10	...........	1505.21
	45036	1801.48	-1.55E-01	7.65E-04	7.65E-01	0.00E+00	-1.55E-01	0.00E+00	10	...........	1505.21
	45037	1801.52	-1.53E-01	7.84E-04	7.84E-01	0.00E+00	-1.53E-01	0.00E+00	10	...........	1505.21
	45038	1801.56	-1.51E-01	7.99E-04	7.99E-01	0.00E+00	-1.51E-01	0.00E+00	10	...........	1505.21
	45039	1801.6	-1.49E-01	8.08E-04	8.08E-01	0.00E+00	-1.49E-01	0.00E+00	10	...........	1505.21
	45040	1801.64	-1.47E-01	8.09E-04	8.09E-01	0.00E+00	-1.47E-01	0.00E+00	10	...........	1505.21
	45041	1801.68	-1.45E-01	8.01E-04	8.01E-01	0.00E+00	-1.45E-01	0.00E+00	10	...........	1505.21
	45042	1801.72	-1.43E-01	7.80E-04	7.80E-01	0.00E+00	-1.43E-01	0.00E+00	10	...........	1505.21
	45043	1801.76	-1.41E-01	7.44E-04	7.44E-01	0.00E+00	-1.41E-01	0.00E+00	10	...........	1505.21
	45044	1801.8	-1.39E-01	6.88E-04	6.88E-01	0.00E+00	-1.39E-01	0.00E+00	10	...........	1505.21
	45045	1801.84	-1.37E-01	6.13E-04	6.13E-01	0.00E+00	-1.37E-01	0.00E+00	10	...........	1505.21
	45046	1801.88	-1.35E-01	5.33E-04	5.33E-01	0.00E+00	-1.35E-01	0.00E+00	10	...........	1505.21
	45047	1801.92	-1.33E-01	4.55E-04	4.55E-01	0.00E+00	-1.33E-01	0.00E+00	10	...........	1505.21
	45048	1801.96	-1.31E-01	3.90E-04	3.90E-01	0.00E+00	-1.31E-01	0.00E+00	10	...........	1505.21
	45049	1802	-1.29E-01	3.38E-04	3.38E-01	0.00E+00	-1.29E-01	0.00E+00	10	...........	1505.21
	45050	1802.04	-1.27E-01	2.99E-04	2.99E-01	0.00E+00	-1.27E-01	0.00E+00	10	...........	1505.15