File: data/Jesus_data/electroless_Pt_28%_NH4OH/CO_Removal.DTA
EXPLAIN
TAG	CV
TITLE	LABEL	Cyclic Voltammetry	Test Identifier
DATE	LABEL	7/17/2023	Date
TIME	LABEL	23:23:41	Time
NOTES	NOTES	1	Notes...

PSTAT	PSTAT	IFC1010-20234	Potentiostat
VINIT	POTEN	-1.27E-01	F	Initial E (V)
VLIMIT1	POTEN	7.74E-01	F	Scan Limit 1 (V)
VLIMIT2	POTEN	-2.27E-01	F	Scan Limit 2 (V)
VFINAL	POTEN	-1.27E-01	F	Final E (V)
SCANRATE	QUANT	5.00E+01	Scan Rate (mV/s)
STEPSIZE	QUANT	2.00E+00	Step Size (mV)
CYCLES	IQUANT	5	Cycles (#)
IMODE	SELECTOR	1	I/E Range Mode
IRANGE	QUANT	2.00E+00	Max Current (mA)
AREA	QUANT	1.00E+00	Sample Area (cm^2)
EQDELAY	QUANT	0.00E+00	Equil. Time (s)
IRCOMP	SELECTOR	2	IRComp
PFCOR	QUANT	3.36E+01	PF Corr. (ohm)
SAMPLINGMODE	SELECTOR	2	Sampling Mode
EOC	QUANT	0	Open Circuit (V)
ELECTRODETYPE	SELECTOR	0	Electrode Type
STRIPPING	TOGGLE	F	Used for Stripping
POLARITY	TOGGLE	F	Signal Polarity
SEQUENCER	TOGGLE	TRUE	Run as Sequence
PSTATMODEL	IQUANT	64	Pstat Model
PSTATSECTION	LABEL	IFC1010-20234	Pstat Section
PSTATSERIALNO	LABEL	20234	Pstat Serial Number
CTRLMODE	IQUANT	1	Control Mode
ELECTROMETER	IQUANT	0	RE=0 or CS=1
IESTAB	IQUANT	2	I/E Stability
CASPEED	IQUANT	4	Control Amp Speed
CONVENTION	IQUANT	1	Current Convention
ICHRANGE	IQUANT	2	Ich Range
ICHRANGEMODE	TOGGLE	F	Ich Auto Range
ICHOFFSETENABLE	TOGGLE	F	Ich Offset Enable
ICHOFFSET	QUANT	0	Ich Offset (V)
ICHFILTER	IQUANT	3	Ich Filter
VCHRANGE	IQUANT	2	Vch Range
VCHRANGEMODE	TOGGLE	F	Vch Auto Range
VCHOFFSETENABLE	TOGGLE	F	Vch Offset Enable
VCHOFFSET	QUANT	0	Vch Offset (V)
VCHFILTER	IQUANT	1	Vch Filter
IERANGELOWERLIMIT	IQUANT	4	I/E Range Lower Limit
IERANGEMODE	TOGGLE	F	I/E AutoRange
IERANGE	IQUANT	10	I/E Range
ACHSELECT	IQUANT	0	Ach Select
ACHRANGE	IQUANT	2	Ach Range
ACHOFFSETENABLE	TOGGLE	F	Ach Offset Enable
ACHOFFSET	QUANT	0	Ach Offset (V)
ACHFILTER	IQUANT	1	Ach Filter
SENSECABLEID	IQUANT	14	Sense Cable ID
PWRCABLEID	IQUANT	14	Power Cable ID
DCCALDATE	LABEL	7/15/2022	DC Calibration Date
ACCALDATE	LABEL	07-08-20	AC Calibration Date
FRAMEWORKVERSION	LABEL	7.8.2	Framework Version
INSTRUMENTVERSION	LABEL	4.4	Instrument Version
CURVE1	TABLE
	Pt	T	Vf	Im		Vu	Sig	Ach	IERange	Over	Temp
	#	s	V vs. Ref.	A		V	V	V	#	bits	deg C
	0	0.04	-1.27E-01	-2.98E-06	-2.98E+00	0.00E+00	-1.27E-01	0.00E+00	10	...........	1505.21
	9	0.4	-1.09E-01	2.02E-06	2.02E+00	0.00E+00	-1.09E-01	0.00E+00	10	...........	1505.21
	18	0.76	-9.10E-02	3.19E-06	3.19E+00	0.00E+00	-9.10E-02	0.00E+00	10	...........	1505.21
	27	1.12	-7.30E-02	3.98E-06	3.98E+00	0.00E+00	-7.30E-02	0.00E+00	10	...........	1506.41
	36	1.48	-5.50E-02	4.68E-06	4.68E+00	0.00E+00	-5.50E-02	0.00E+00	10	...........	1506.41
	45	1.84	-3.70E-02	5.12E-06	5.12E+00	0.00E+00	-3.70E-02	0.00E+00	10	...........	1506.41
	54	2.2	-1.90E-02	5.52E-06	5.52E+00	0.00E+00	-1.90E-02	0.00E+00	10	...........	1505.21
	63	2.56	-9.76E-04	5.82E-06	5.82E+00	0.00E+00	-1.00E-03	0.00E+00	10	...........	1505.21
	72	2.92	1.70E-02	6.17E-06	6.17E+00	0.00E+00	1.70E-02	0.00E+00	10	...........	1505.21
	81	3.28	3.50E-02	6.42E-06	6.42E+00	0.00E+00	3.50E-02	0.00E+00	10	...........	1505.21
	90	3.64	5.30E-02	6.68E-06	6.68E+00	0.00E+00	5.30E-02	0.00E+00	10	...........	1505.21
	99	4	7.10E-02	7.15E-06	7.15E+00	0.00E+00	7.10E-02	0.00E+00	10	...........	1505.12
	108	4.36	8.90E-02	7.73E-06	7.73E+00	0.00E+00	8.90E-02	0.00E+00	10	...........	1505.12
	117	4.72	1.07E-01	8.55E-06	8.55E+00	0.00E+00	1.07E-01	0.00E+00	10	...........	1505.12
	126	5.08	1.25E-01	9.86E-06	9.86E+00	0.00E+00	1.25E-01	0.00E+00	10	...........	1505.58
	135	5.44	1.43E-01	1.18E-05	1.18E+01	0.00E+00	1.43E-01	0.00E+00	10	...........	1505.58
	144	5.8	1.61E-01	1.47E-05	1.47E+01	0.00E+00	1.61E-01	0.00E+00	10	...........	1505.58
	153	6.16	1.79E-01	1.90E-05	1.90E+01	0.00E+00	1.79E-01	0.00E+00	10	...........	1505.21
	162	6.52	1.97E-01	2.51E-05	2.51E+01	0.00E+00	1.97E-01	0.00E+00	10	...........	1505.21
	171	6.88	2.15E-01	3.32E-05	3.32E+01	0.00E+00	2.15E-01	0.00E+00	10	...........	1505.21
	180	7.24	2.33E-01	4.38E-05	4.38E+01	0.00E+00	2.33E-01	0.00E+00	10	...........	1505.21
	189	7.6	2.51E-01	5.50E-05	5.50E+01	0.00E+00	2.51E-01	0.00E+00	10	...........	1505.21
	198	7.96	2.69E-01	6.36E-05	6.36E+01	0.00E+00	2.69E-01	0.00E+00	10	...........	1505.12
	207	8.32	2.87E-01	6.58E-05	6.58E+01	0.00E+00	2.87E-01	0.00E+00	10	...........	1505.12
	216	8.68	3.05E-01	6.22E-05	6.22E+01	0.00E+00	3.05E-01	0.00E+00	10	...........	1505.12
	225	9.04	3.23E-01	5.58E-05	5.58E+01	0.00E+00	3.23E-01	0.00E+00	10	...........	1505.12
	234	9.4	3.41E-01	4.98E-05	4.98E+01	0.00E+00	3.41E-01	0.00E+00	10	...........	1505.12
	243	9.76	3.59E-01	4.57E-05	4.57E+01	0.00E+00	3.59E-01	0.00E+00	10	...........	1505.12
	252	10.12	3.77E-01	4.41E-05	4.41E+01	0.00E+00	3.77E-01	0.00E+00	10	...........	1505.12
	261	10.48	3.95E-01	4.56E-05	4.56E+01	0.00E+00	3.95E-01	0.00E+00	10	...........	1505.12
	270	10.84	4.13E-01	5.02E-05	5.02E+01	0.00E+00	4.13E-01	0.00E+00	10	...........	1505.12
	279	11.2	4.31E-01	5.94E-05	5.94E+01	0.00E+00	4.31E-01	0.00E+00	10	...........	1505.3
	288	11.56	4.49E-01	7.72E-05	7.72E+01	0.00E+00	4.49E-01	0.00E+00	10	...........	1505.3
	297	11.92	4.67E-01	1.09E-04	1.09E+02	0.00E+00	4.67E-01	0.00E+00	10	...........	1505.22
	306	12.28	4.85E-01	1.61E-04	1.61E+02	0.00E+00	4.85E-01	0.00E+00	10	...........	1505.21
	315	12.64	5.03E-01	2.23E-04	2.23E+02	0.00E+00	5.03E-01	0.00E+00	10	...........	1505.21
	324	13	5.21E-01	2.65E-04	2.65E+02	0.00E+00	5.21E-01	0.00E+00	10	...........	1505.4
	333	13.36	5.39E-01	2.54E-04	2.54E+02	0.00E+00	5.39E-01	0.00E+00	10	...........	1505.4
	342	13.72	5.57E-01	2.04E-04	2.04E+02	0.00E+00	5.57E-01	0.00E+00	10	...........	1505.4
	351	14.08	5.75E-01	1.76E-04	1.76E+02	0.00E+00	5.75E-01	0.00E+00	10	...........	1505.21
	360	14.44	5.93E-01	1.60E-04	1.60E+02	0.00E+00	5.93E-01	0.00E+00	10	...........	1505.21
	369	14.8	6.11E-01	1.15E-04	1.15E+02	0.00E+00	6.11E-01	0.00E+00	10	...........	1505.21
	378	15.16	6.29E-01	8.26E-05	8.26E+01	0.00E+00	6.29E-01	0.00E+00	10	...........	1505.49
	387	15.52	6.47E-01	7.40E-05	7.40E+01	0.00E+00	6.47E-01	0.00E+00	10	...........	1505.49
	396	15.88	6.65E-01	7.64E-05	7.64E+01	0.00E+00	6.65E-01	0.00E+00	10	...........	1505.49
	405	16.24	6.83E-01	8.30E-05	8.30E+01	0.00E+00	6.83E-01	0.00E+00	10	...........	1505.21
	414	16.6	7.01E-01	8.66E-05	8.66E+01	0.00E+00	7.01E-01	0.00E+00	10	...........	1505.21
	423	16.96	7.19E-01	9.35E-05	9.35E+01	0.00E+00	7.19E-01	0.00E+00	10	...........	1505.21
	432	17.32	7.37E-01	9.83E-05	9.83E+01	0.00E+00	7.37E-01	0.00E+00	10	...........	1505.21
	441	17.68	7.55E-01	1.03E-04	1.03E+02	0.00E+00	7.55E-01	0.00E+00	10	...........	1505.21
	450	18.04	7.73E-01	1.07E-04	1.07E+02	0.00E+00	7.73E-01	0.00E+00	10	...........	1505.21
	459	18.4	7.55E-01	7.62E-06	7.62E+00	0.00E+00	7.55E-01	0.00E+00	10	...........	1505.21
	468	18.76	7.37E-01	-8.40E-06	-8.40E+00	0.00E+00	7.37E-01	0.00E+00	10	...........	1505.21
	477	19.12	7.19E-01	-1.72E-05	-1.72E+01	0.00E+00	7.19E-01	0.00E+00	10	...........	1505.21
	486	19.48	7.01E-01	-2.42E-05	-2.42E+01	0.00E+00	7.01E-01	0.00E+00	10	...........	1505.21
	495	19.84	6.83E-01	-3.05E-05	-3.05E+01	0.00E+00	6.83E-01	0.00E+00	10	...........	1505.21
	504	20.2	6.65E-01	-3.66E-05	-3.66E+01	0.00E+00	6.65E-01	0.00E+00	10	...........	1505.21
	513	20.56	6.47E-01	-4.19E-05	-4.19E+01	0.00E+00	6.47E-01	0.00E+00	10	...........	1505.21
	522	20.92	6.29E-01	-4.58E-05	-4.58E+01	0.00E+00	6.29E-01	0.00E+00	10	...........	1505.21
	531	21.28	6.11E-01	-4.72E-05	-4.72E+01	0.00E+00	6.11E-01	0.00E+00	10	...........	1505.21
	540	21.64	5.93E-01	-4.68E-05	-4.68E+01	0.00E+00	5.93E-01	0.00E+00	10	...........	1505.21
	549	22	5.75E-01	-4.39E-05	-4.39E+01	0.00E+00	5.75E-01	0.00E+00	10	...........	1505.21
	558	22.36	5.57E-01	-4.02E-05	-4.02E+01	0.00E+00	5.57E-01	0.00E+00	10	...........	1505.21
	567	22.72	5.39E-01	-3.58E-05	-3.58E+01	0.00E+00	5.39E-01	0.00E+00	10	...........	1505.21
	576	23.08	5.21E-01	-3.13E-05	-3.13E+01	0.00E+00	5.21E-01	0.00E+00	10	...........	1505.21
	585	23.44	5.03E-01	-2.72E-05	-2.72E+01	0.00E+00	5.03E-01	0.00E+00	10	...........	1505.21
	594	23.8	4.85E-01	-2.39E-05	-2.39E+01	0.00E+00	4.85E-01	0.00E+00	10	...........	1505.21
	603	24.16	4.67E-01	-2.08E-05	-2.08E+01	0.00E+00	4.67E-01	0.00E+00	10	...........	1505.49
	612	24.52	4.49E-01	-1.86E-05	-1.86E+01	0.00E+00	4.49E-01	0.00E+00	10	...........	1505.49
	621	24.88	4.31E-01	-1.71E-05	-1.71E+01	0.00E+00	4.31E-01	0.00E+00	10	...........	1505.46
	630	25.24	4.13E-01	-1.58E-05	-1.58E+01	0.00E+00	4.13E-01	0.00E+00	10	...........	1505.12
	639	25.6	3.95E-01	-1.50E-05	-1.50E+01	0.00E+00	3.95E-01	0.00E+00	10	...........	1505.12
	648	25.96	3.77E-01	-1.42E-05	-1.42E+01	0.00E+00	3.77E-01	0.00E+00	10	...........	1505.3
	657	26.32	3.59E-01	-1.33E-05	-1.33E+01	0.00E+00	3.59E-01	0.00E+00	10	...........	1505.3
	666	26.68	3.41E-01	-1.30E-05	-1.30E+01	0.00E+00	3.41E-01	0.00E+00	10	...........	1505.3
	675	27.04	3.23E-01	-1.25E-05	-1.25E+01	0.00E+00	3.23E-01	0.00E+00	10	...........	1505.12
	684	27.4	3.05E-01	-1.25E-05	-1.25E+01	0.00E+00	3.05E-01	0.00E+00	10	...........	1505.12
	693	27.76	2.87E-01	-1.25E-05	-1.25E+01	0.00E+00	2.87E-01	0.00E+00	10	...........	1505.12
	702	28.12	2.69E-01	-1.23E-05	-1.23E+01	0.00E+00	2.69E-01	0.00E+00	10	...........	1505.3
	711	28.48	2.51E-01	-1.23E-05	-1.23E+01	0.00E+00	2.51E-01	0.00E+00	10	...........	1505.3
	720	28.84	2.33E-01	-1.23E-05	-1.23E+01	0.00E+00	2.33E-01	0.00E+00	10	...........	1505.3
	729	29.2	2.15E-01	-1.27E-05	-1.27E+01	0.00E+00	2.15E-01	0.00E+00	10	...........	1505.12
	738	29.56	1.97E-01	-1.34E-05	-1.34E+01	0.00E+00	1.97E-01	0.00E+00	10	...........	1505.12
	747	29.92	1.79E-01	-1.51E-05	-1.51E+01	0.00E+00	1.79E-01	0.00E+00	10	...........	1505.3
	756	30.28	1.61E-01	-1.85E-05	-1.85E+01	0.00E+00	1.61E-01	0.00E+00	10	...........	1505.3
	765	30.64	1.43E-01	-2.38E-05	-2.38E+01	0.00E+00	1.43E-01	0.00E+00	10	...........	1505.3
	774	31	1.25E-01	-3.15E-05	-3.15E+01	0.00E+00	1.25E-01	0.00E+00	10	...........	1505.12
	783	31.36	1.07E-01	-3.83E-05	-3.83E+01	0.00E+00	1.07E-01	0.00E+00	10	...........	1505.12
	792	31.72	8.90E-02	-4.33E-05	-4.33E+01	0.00E+00	8.90E-02	0.00E+00	10	...........	1505.12
	801	32.08	7.10E-02	-5.55E-05	-5.55E+01	0.00E+00	7.10E-02	0.00E+00	10	...........	1505.21
	810	32.44	5.30E-02	-7.43E-05	-7.43E+01	0.00E+00	5.30E-02	0.00E+00	10	...........	1505.21
	819	32.8	3.50E-02	-8.76E-05	-8.76E+01	0.00E+00	3.50E-02	0.00E+00	10	...........	1505.21
	828	33.16	1.70E-02	-8.93E-05	-8.93E+01	0.00E+00	1.70E-02	0.00E+00	10	...........	1505.21
	837	33.52	-1.00E-03	-8.73E-05	-8.73E+01	0.00E+00	-1.00E-03	0.00E+00	10	...........	1505.21
	846	33.88	-1.90E-02	-8.44E-05	-8.44E+01	0.00E+00	-1.90E-02	0.00E+00	10	...........	1505.23
	855	34.24	-3.70E-02	-8.66E-05	-8.66E+01	0.00E+00	-3.70E-02	0.00E+00	10	...........	1505.3
	864	34.6	-5.50E-02	-9.82E-05	-9.82E+01	0.00E+00	-5.50E-02	0.00E+00	10	...........	1505.3
	873	34.96	-7.30E-02	-1.27E-04	-1.27E+02	0.00E+00	-7.30E-02	0.00E+00	10	...........	1505.12
	882	35.32	-9.10E-02	-1.80E-04	-1.80E+02	0.00E+00	-9.10E-02	0.00E+00	10	...........	1505.12
	891	35.68	-1.09E-01	-1.93E-04	-1.93E+02	0.00E+00	-1.09E-01	0.00E+00	10	...........	1505.12
	900	36.04	-1.27E-01	-1.69E-04	-1.69E+02	0.00E+00	-1.27E-01	0.00E+00	10	...........	1505.4
	909	36.4	-1.45E-01	-1.68E-04	-1.68E+02	0.00E+00	-1.45E-01	0.00E+00	10	...........	1505.4
	918	36.76	-1.63E-01	-2.20E-04	-2.20E+02	0.00E+00	-1.63E-01	0.00E+00	10	...........	1505.4
	927	37.12	-1.81E-01	-4.11E-04	-4.11E+02	0.00E+00	-1.81E-01	0.00E+00	10	...........	1505.12
	936	37.48	-1.99E-01	-7.50E-04	-7.50E+02	0.00E+00	-1.99E-01	0.00E+00	10	...........	1505.12
	945	37.84	-2.17E-01	-9.00E-04	-9.00E+02	0.00E+00	-2.17E-01	0.00E+00	10	...........	1505.12
	950	38.04	-2.27E-01	-8.06E-04	-8.06E+02	0.00E+00	-2.27E-01	0.00E+00	10	...........	1505.58
CURVE2	TABLE				0.00E+00
	Pt	T	Vf	Im	#VALUE!	Vu	Sig	Ach	IERange	Over	Temp
	#	s	V vs. Ref.	A	#VALUE!	V	V	V	#	bits	deg C
	951	38.08	-2.25E-01	-6.43E-04	-6.43E+02	0.00E+00	-2.25E-01	0.00E+00	10	...........	1505.58
	960	38.44	-2.07E-01	7.06E-05	7.06E+01	0.00E+00	-2.07E-01	0.00E+00	10	...........	1505.58
	969	38.8	-1.89E-01	3.47E-04	3.47E+02	0.00E+00	-1.89E-01	0.00E+00	10	...........	1505.58
	978	39.16	-1.71E-01	5.65E-04	5.65E+02	0.00E+00	-1.71E-01	0.00E+00	10	...........	1505.21
	987	39.52	-1.53E-01	8.02E-04	8.02E+02	0.00E+00	-1.53E-01	0.00E+00	10	...........	1505.21
	996	39.88	-1.35E-01	5.51E-04	5.51E+02	0.00E+00	-1.35E-01	0.00E+00	10	...........	1505.23
	1005	40.24	-1.17E-01	1.93E-04	1.93E+02	0.00E+00	-1.17E-01	0.00E+00	10	...........	1505.3
	1014	40.6	-9.90E-02	1.70E-04	1.70E+02	0.00E+00	-9.90E-02	0.00E+00	10	...........	1505.3
	1023	40.96	-8.10E-02	1.76E-04	1.76E+02	0.00E+00	-8.10E-02	0.00E+00	10	...........	1505.4
	1032	41.32	-6.30E-02	1.40E-04	1.40E+02	0.00E+00	-6.30E-02	0.00E+00	10	...........	1505.4
	1041	41.68	-4.50E-02	1.12E-04	1.12E+02	0.00E+00	-4.50E-02	0.00E+00	10	...........	1505.4
	1050	42.04	-2.70E-02	1.06E-04	1.06E+02	0.00E+00	-2.70E-02	0.00E+00	10	...........	1505.21
	1059	42.4	-9.01E-03	1.06E-04	1.06E+02	0.00E+00	-9.00E-03	0.00E+00	10	...........	1505.21
	1068	42.76	8.99E-03	1.00E-04	1.00E+02	0.00E+00	9.00E-03	0.00E+00	10	...........	1505.21
	1077	43.12	2.70E-02	1.07E-04	1.07E+02	0.00E+00	2.70E-02	0.00E+00	10	...........	1505.49
	1086	43.48	4.50E-02	1.13E-04	1.13E+02	0.00E+00	4.50E-02	0.00E+00	10	...........	1505.49
	1095	43.84	6.30E-02	9.44E-05	9.44E+01	0.00E+00	6.30E-02	0.00E+00	10	...........	1505.49
	1104	44.2	8.10E-02	6.43E-05	6.43E+01	0.00E+00	8.10E-02	0.00E+00	10	...........	1505.3
	1113	44.56	9.90E-02	4.73E-05	4.73E+01	0.00E+00	9.90E-02	0.00E+00	10	...........	1505.3
	1122	44.92	1.17E-01	3.93E-05	3.93E+01	0.00E+00	1.17E-01	0.00E+00	10	...........	1505.21
	1131	45.28	1.35E-01	3.15E-05	3.15E+01	0.00E+00	1.35E-01	0.00E+00	10	...........	1505.21
	1140	45.64	1.53E-01	2.36E-05	2.36E+01	0.00E+00	1.53E-01	0.00E+00	10	...........	1505.21
	1149	46	1.71E-01	1.84E-05	1.84E+01	0.00E+00	1.71E-01	0.00E+00	10	...........	1505.21
	1158	46.36	1.89E-01	1.53E-05	1.53E+01	0.00E+00	1.89E-01	0.00E+00	10	...........	1505.21
	1167	46.72	2.07E-01	1.34E-05	1.34E+01	0.00E+00	2.07E-01	0.00E+00	10	...........	1505.21
	1176	47.08	2.25E-01	1.24E-05	1.24E+01	0.00E+00	2.25E-01	0.00E+00	10	...........	1505.21
	1185	47.44	2.43E-01	1.20E-05	1.20E+01	0.00E+00	2.43E-01	0.00E+00	10	...........	1505.21
	1194	47.8	2.61E-01	1.18E-05	1.18E+01	0.00E+00	2.61E-01	0.00E+00	10	...........	1505.21
	1203	48.16	2.79E-01	1.19E-05	1.19E+01	0.00E+00	2.79E-01	0.00E+00	10	...........	1505.21
	1212	48.52	2.97E-01	1.20E-05	1.20E+01	0.00E+00	2.97E-01	0.00E+00	10	...........	1505.21
	1221	48.88	3.15E-01	1.20E-05	1.20E+01	0.00E+00	3.15E-01	0.00E+00	10	...........	1505.29
	1230	49.24	3.33E-01	1.22E-05	1.22E+01	0.00E+00	3.33E-01	0.00E+00	10	...........	1505.49
	1239	49.6	3.51E-01	1.21E-05	1.21E+01	0.00E+00	3.51E-01	0.00E+00	10	...........	1505.49
	1248	49.96	3.69E-01	1.21E-05	1.21E+01	0.00E+00	3.69E-01	0.00E+00	10	...........	1505.21
	1257	50.32	3.87E-01	1.19E-05	1.19E+01	0.00E+00	3.87E-01	0.00E+00	10	...........	1505.21
	1266	50.68	4.05E-01	1.20E-05	1.20E+01	0.00E+00	4.05E-01	0.00E+00	10	...........	1505.21
	1275	51.04	4.23E-01	1.22E-05	1.22E+01	0.00E+00	4.23E-01	0.00E+00	10	...........	1505.49
	1284	51.4	4.41E-01	1.26E-05	1.26E+01	0.00E+00	4.41E-01	0.00E+00	10	...........	1505.49
	1293	51.76	4.59E-01	1.37E-05	1.37E+01	0.00E+00	4.59E-01	0.00E+00	10	...........	1505.49
	1302	52.12	4.77E-01	1.50E-05	1.50E+01	0.00E+00	4.77E-01	0.00E+00	10	...........	1505.21
	1311	52.48	4.95E-01	1.73E-05	1.73E+01	0.00E+00	4.95E-01	0.00E+00	10	...........	1505.21
	1320	52.84	5.13E-01	2.03E-05	2.03E+01	0.00E+00	5.13E-01	0.00E+00	10	...........	1505.21
	1329	53.2	5.31E-01	2.37E-05	2.37E+01	0.00E+00	5.31E-01	0.00E+00	10	...........	1505.49
	1338	53.56	5.49E-01	2.71E-05	2.71E+01	0.00E+00	5.49E-01	0.00E+00	10	...........	1505.49
	1347	53.92	5.67E-01	2.93E-05	2.93E+01	0.00E+00	5.67E-01	0.00E+00	10	...........	1505.21
	1356	54.28	5.85E-01	3.10E-05	3.10E+01	0.00E+00	5.85E-01	0.00E+00	10	...........	1505.21
	1365	54.64	6.03E-01	3.24E-05	3.24E+01	0.00E+00	6.03E-01	0.00E+00	10	...........	1505.21
	1374	55	6.21E-01	3.50E-05	3.50E+01	0.00E+00	6.21E-01	0.00E+00	10	...........	1505.58
	1383	55.36	6.39E-01	4.23E-05	4.23E+01	0.00E+00	6.39E-01	0.00E+00	10	...........	1505.58
	1392	55.72	6.57E-01	5.34E-05	5.34E+01	0.00E+00	6.57E-01	0.00E+00	10	...........	1505.58
	1401	56.08	6.75E-01	6.39E-05	6.39E+01	0.00E+00	6.75E-01	0.00E+00	10	...........	1505.21
	1410	56.44	6.93E-01	7.27E-05	7.27E+01	0.00E+00	6.93E-01	0.00E+00	10	...........	1505.21
	1419	56.8	7.11E-01	8.12E-05	8.12E+01	0.00E+00	7.11E-01	0.00E+00	10	...........	1505.21
	1428	57.16	7.29E-01	8.87E-05	8.87E+01	0.00E+00	7.29E-01	0.00E+00	10	...........	1505.58
	1437	57.52	7.47E-01	9.32E-05	9.32E+01	0.00E+00	7.47E-01	0.00E+00	10	...........	1505.58
	1446	57.88	7.65E-01	9.71E-05	9.71E+01	0.00E+00	7.65E-01	0.00E+00	10	...........	1505.45
	1455	58.24	7.63E-01	1.93E-05	1.93E+01	0.00E+00	7.63E-01	0.00E+00	10	...........	1505.21
	1464	58.6	7.45E-01	-6.53E-06	-6.53E+00	0.00E+00	7.45E-01	0.00E+00	10	...........	1505.21
	1473	58.96	7.27E-01	-1.64E-05	-1.64E+01	0.00E+00	7.27E-01	0.00E+00	10	...........	1505.58
	1482	59.32	7.09E-01	-2.32E-05	-2.32E+01	0.00E+00	7.09E-01	0.00E+00	10	...........	1505.58
	1491	59.68	6.91E-01	-2.94E-05	-2.94E+01	0.00E+00	6.91E-01	0.00E+00	10	...........	1505.58
	1500	60.04	6.73E-01	-3.48E-05	-3.48E+01	0.00E+00	6.73E-01	0.00E+00	10	...........	1505.21
[...]
	4541	181.68	5.91E-01	-4.05E-05	-4.05E+01	0.00E+00	5.91E-01	0.00E+00	10	...........	1505.3
	4551	182.08	5.71E-01	-3.76E-05	-3.76E+01	0.00E+00	5.71E-01	0.00E+00	10	...........	1505.21
	4561	182.48	5.51E-01	-3.37E-05	-3.37E+01	0.00E+00	5.51E-01	0.00E+00	10	...........	1505.21
	4571	182.88	5.31E-01	-2.93E-05	-2.93E+01	0.00E+00	5.31E-01	0.00E+00	10	...........	1505.21
	4581	183.28	5.11E-01	-2.54E-05	-2.54E+01	0.00E+00	5.11E-01	0.00E+00	10	...........	1505.21
	4591	183.68	4.91E-01	-2.19E-05	-2.19E+01	0.00E+00	4.91E-01	0.00E+00	10	...........	1505.21
	4601	184.08	4.71E-01	-1.89E-05	-1.89E+01	0.00E+00	4.71E-01	0.00E+00	10	...........	1505.12
	4611	184.48	4.51E-01	-1.67E-05	-1.67E+01	0.00E+00	4.51E-01	0.00E+00	10	...........	1505.12
	4621	184.88	4.31E-01	-1.50E-05	-1.50E+01	0.00E+00	4.31E-01	0.00E+00	10	...........	1505.12
	4631	185.28	4.11E-01	-1.40E-05	-1.40E+01	0.00E+00	4.11E-01	0.00E+00	10	...........	1505.12
	4641	185.68	3.91E-01	-1.32E-05	-1.32E+01	0.00E+00	3.91E-01	0.00E+00	10	...........	1505.12
	4651	186.08	3.71E-01	-1.28E-05	-1.28E+01	0.00E+00	3.71E-01	0.00E+00	10	...........	1505.58
	4661	186.48	3.51E-01	-1.22E-05	-1.22E+01	0.00E+00	3.51E-01	0.00E+00	10	...........	1505.58
	4671	186.88	3.31E-01	-1.19E-05	-1.19E+01	0.00E+00	3.31E-01	0.00E+00	10	...........	1505.21
	4681	187.28	3.11E-01	-1.17E-05	-1.17E+01	0.00E+00	3.11E-01	0.00E+00	10	...........	1505.21
	4691	187.68	2.91E-01	-1.13E-05	-1.13E+01	0.00E+00	2.91E-01	0.00E+00	10	...........	1505.21
	4701	188.08	2.71E-01	-1.12E-05	-1.12E+01	0.00E+00	2.71E-01	0.00E+00	10	...........	1505.58
	4711	188.48	2.51E-01	-1.10E-05	-1.10E+01	0.00E+00	2.51E-01	0.00E+00	10	...........	1505.58
	4721	188.88	2.31E-01	-1.09E-05	-1.09E+01	0.00E+00	2.31E-01	0.00E+00	10	...........	1505.21
	4731	189.28	2.11E-01	-1.10E-05	-1.10E+01	0.00E+00	2.11E-01	0.00E+00	10	...........	1505.21
	4741	189.68	1.91E-01	-1.17E-05	-1.17E+01	0.00E+00	1.91E-01	0.00E+00	10	...........	1505.21
	4751	190.08	1.71E-01	-1.37E-05	-1.37E+01	0.00E+00	1.71E-01	0.00E+00	10	...........	1505.58
	4761	190.48	1.51E-01	-1.73E-05	-1.73E+01	0.00E+00	1.51E-01	0.00E+00	10	...........	1505.58
	4771	190.88	1.31E-01	-2.38E-05	-2.38E+01	0.00E+00	1.31E-01	0.00E+00	10	...........	1505.21
	4781	191.28	1.11E-01	-3.26E-05	-3.26E+01	0.00E+00	1.11E-01	0.00E+00	10	...........	1505.21
	4791	191.68	9.10E-02	-4.07E-05	-4.07E+01	0.00E+00	9.10E-02	0.00E+00	10	...........	1505.21
	4801	192.08	7.10E-02	-4.79E-05	-4.79E+01	0.00E+00	7.10E-02	0.00E+00	10	...........	1505.58
	4811	192.48	5.10E-02	-6.42E-05	-6.42E+01	0.00E+00	5.10E-02	0.00E+00	10	...........	1505.58
	4821	192.88	3.10E-02	-8.30E-05	-8.30E+01	0.00E+00	3.10E-02	0.00E+00	10	...........	1505.21
	4831	193.28	1.10E-02	-9.76E-05	-9.76E+01	0.00E+00	1.10E-02	0.00E+00	10	...........	1505.21
	4841	193.68	-8.98E-03	-1.07E-04	-1.07E+02	0.00E+00	-9.00E-03	0.00E+00	10	...........	1505.21
	4851	194.08	-2.90E-02	-1.04E-04	-1.04E+02	0.00E+00	-2.90E-02	0.00E+00	10	...........	1505.58
	4861	194.48	-4.90E-02	-1.02E-04	-1.02E+02	0.00E+00	-4.90E-02	0.00E+00	10	...........	1505.58
	4871	194.88	-6.90E-02	-1.20E-04	-1.20E+02	0.00E+00	-6.90E-02	0.00E+00	10	...........	1505.21
	4881	195.28	-8.90E-02	-1.74E-04	-1.74E+02	0.00E+00	-8.90E-02	0.00E+00	10	...........	1505.21
	4891	195.68	-1.09E-01	-2.03E-04	-2.03E+02	0.00E+00	-1.09E-01	0.00E+00	10	...........	1505.21
	4901	196.08	-1.29E-01	-1.74E-04	-1.74E+02	0.00E+00	-1.29E-01	0.00E+00	10	...........	1505.67
	4911	196.48	-1.49E-01	-1.82E-04	-1.82E+02	0.00E+00	-1.49E-01	0.00E+00	10	...........	1505.67
	4921	196.88	-1.69E-01	-2.74E-04	-2.74E+02	0.00E+00	-1.69E-01	0.00E+00	10	...........	1505.21
	4931	197.28	-1.89E-01	-5.67E-04	-5.67E+02	0.00E+00	-1.89E-01	0.00E+00	10	...........	1505.21
	4941	197.68	-2.09E-01	-8.94E-04	-8.94E+02	0.00E+00	-2.09E-01	0.00E+00	10	...........	1505.21
	4950	198.04	-2.27E-01	-8.00E-04	-8.00E+02	0.00E+00	-2.27E-01	0.00E+00	10	...........	1505.58
CURVE6	TABLE				0.00E+00
	Pt	T	Vf	Im	#VALUE!	Vu	Sig	Ach	IERange	Over	Temp
	#	s	V vs. Ref.	A	#VALUE!	V	V	V	#	bits	deg C
	4951	198.08	-2.25E-01	-6.38E-04	-6.38E+02	0.00E+00	-2.25E-01	0.00E+00	10	...........	1505.58
	4952	198.12	-2.23E-01	-5.05E-04	-5.05E+02	0.00E+00	-2.23E-01	0.00E+00	10	...........	1505.58
	4953	198.16	-2.21E-01	-3.95E-04	-3.95E+02	0.00E+00	-2.21E-01	0.00E+00	10	...........	1505.58
	4954	198.2	-2.19E-01	-3.01E-04	-3.01E+02	0.00E+00	-2.19E-01	0.00E+00	10	...........	1505.58
	4955	198.24	-2.17E-01	-2.20E-04	-2.20E+02	0.00E+00	-2.17E-01	0.00E+00	10	...........	1505.58
	4956	198.28	-2.15E-01	-1.49E-04	-1.49E+02	0.00E+00	-2.15E-01	0.00E+00	10	...........	1505.58
	4957	198.32	-2.13E-01	-8.57E-05	-8.57E+01	0.00E+00	-2.13E-01	0.00E+00	10	...........	1505.58
	4958	198.36	-2.11E-01	-2.87E-05	-2.87E+01	0.00E+00	-2.11E-01	0.00E+00	10	...........	1505.58
	4959	198.4	-2.09E-01	2.15E-05	2.15E+01	0.00E+00	-2.09E-01	0.00E+00	10	...........	1505.58
	4960	198.44	-2.07E-01	6.79E-05	6.79E+01	0.00E+00	-2.07E-01	0.00E+00	10	...........	1505.58
	4961	198.48	-2.05E-01	1.09E-04	1.09E+02	0.00E+00	-2.05E-01	0.00E+00	10	...........	1505.58
	4962	198.52	-2.03E-01	1.47E-04	1.47E+02	0.00E+00	-2.03E-01	0.00E+00	10	...........	1505.58
	4963	198.56	-2.01E-01	1.81E-04	1.81E+02	0.00E+00	-2.01E-01	0.00E+00	10	...........	1505.58
	4964	198.6	-1.99E-01	2.13E-04	2.13E+02	0.00E+00	-1.99E-01	0.00E+00	10	...........	1505.58
	4965	198.64	-1.97E-01	2.42E-04	2.42E+02	0.00E+00	-1.97E-01	0.00E+00	10	...........	1505.58
	4966	198.68	-1.95E-01	2.69E-04	2.69E+02	0.00E+00	-1.95E-01	0.00E+00	10	...........	1505.58
	4967	198.72	-1.93E-01	2.95E-04	2.95E+02	0.00E+00	-1.93E-01	0.00E+00	10	...........	1505.58
	4968	198.76	-1.91E-01	3.19E-04	3.19E+02	0.00E+00	-1.91E-01	0.00E+00	10	...........	1505.58
	4969	198.8	-1.89E-01	3.43E-04	3.43E+02	0.00E+00	-1.89E-01	0.00E+00	10	...........	1505.58
	4970	198.84	-1.87E-01	3.66E-04	3.66E+02	0.00E+00	-1.87E-01	0.00E+00	10	...........	1505.37
	4971	198.88	-1.85E-01	3.89E-04	3.89E+02	0.00E+00	-1.85E-01	0.00E+00	10	...........	1505.21
	4972	198.92	-1.83E-01	4.12E-04	4.12E+02	0.00E+00	-1.83E-01	0.00E+00	10	...........	1505.21
	4973	198.96	-1.81E-01	4.35E-04	4.35E+02	0.00E+00	-1.81E-01	0.00E+00	10	...........	1505.21
	4974	199	-1.79E-01	4.59E-04	4.59E+02	0.00E+00	-1.79E-01	0.00E+00	10	...........	1505.21
	4975	199.04	-1.77E-01	4.83E-04	4.83E+02	0.00E+00	-1.77E-01	0.00E+00	10	...........	1505.21
	4976	199.08	-1.75E-01	5.09E-04	5.09E+02	0.00E+00	-1.75E-01	0.00E+00	10	...........	1505.21
	4977	199.12	-1.73E-01	5.34E-04	5.34E+02	0.00E+00	-1.73E-01	0.00E+00	10	...........	1505.21
	4978	199.16	-1.71E-01	5.61E-04	5.61E+02	0.00E+00	-1.71E-01	0.00E+00	10	...........	1505.21
	4979	199.2	-1.69E-01	5.88E-04	5.88E+02	0.00E+00	-1.69E-01	0.00E+00	10	...........	1505.21
	4980	199.24	-1.67E-01	6.16E-04	6.16E+02	0.00E+00	-1.67E-01	0.00E+00	10	...........	1505.21
	4981	199.28	-1.65E-01	6.44E-04	6.44E+02	0.00E+00	-1.65E-01	0.00E+00	10	...........	1505.21
	4982	199.32	-1.63E-01	6.72E-04	6.72E+02	0.00E+00	-1.63E-01	0.00E+00	10	...........	1505.21
	4983	199.36	-1.61E-01	7.00E-04	7.00E+02	0.00E+00	-1.61E-01	0.00E+00	10	...........	1505.21
	4984	199.4	-1.59E-01	7.27E-04	7.27E+02	0.00E+00	-1.59E-01	0.00E+00	10	...........	1505.21
	4985	199.44	-1.57E-01	7.53E-04	7.53E+02	0.00E+00	-1.57E-01	0.00E+00	10	...........	1505.21
	4986	199.48	-1.55E-01	7.76E-04	7.76E+02	0.00E+00	-1.55E-01	0.00E+00	10	...........	1505.21
	4987	199.52	-1.53E-01	7.97E-04	7.97E+02	0.00E+00	-1.53E-01	0.00E+00	10	...........	1505.21
	4988	199.56	-1.51E-01	8.14E-04	8.14E+02	0.00E+00	-1.51E-01	0.00E+00	10	...........	1505.21
	4989	199.6	-1.49E-01	8.25E-04	8.25E+02	0.00E+00	-1.49E-01	0.00E+00	10	...........	1505.21
	4990	199.64	-1.47E-01	8.29E-04	8.29E+02	0.00E+00	-1.47E-01	0.00E+00	10	...........	1505.21
	4991	199.68	-1.45E-01	8.25E-04	8.25E+02	0.00E+00	-1.45E-01	0.00E+00	10	...........	1505.21
	4992	199.72	-1.43E-01	8.09E-04	8.09E+02	0.00E+00	-1.43E-01	0.00E+00	10	...........	1505.21
	4993	199.76	-1.41E-01	7.79E-04	7.79E+02	0.00E+00	-1.41E-01	0.00E+00	10	...........	1505.21
	4994	199.8	-1.39E-01	7.29E-04	7.29E+02	0.00E+00	-1.39E-01	0.00E+00	10	...........	1505.21
	4995	199.84	-1.37E-01	6.59E-04	6.59E+02	0.00E+00	-1.37E-01	0.00E+00	10	...........	1505.32
	4996	199.88	-1.35E-01	5.75E-04	5.75E+02	0.00E+00	-1.35E-01	0.00E+00	10	...........	1505.4
	4997	199.92	-1.33E-01	4.90E-04	4.90E+02	0.00E+00	-1.33E-01	0.00E+00	10	...........	1505.4
	4998	199.96	-1.31E-01	4.15E-04	4.15E+02	0.00E+00	-1.31E-01	0.00E+00	10	...........	1505.4
	4999	200	-1.29E-01	3.53E-04	3.53E+02	0.00E+00	-1.29E-01	0.00E+00	10	...........	1505.4
	5000	200.04	-1.27E-01	3.07E-04	3.07E+02	0.00E+00	-1.27E-01	0.00E+00	10	...........	1505.4